title:2                                                                               , recorded:09.12.13 10.32.17, sampling:128, subject:abhe                                                                            , labels:COUNTER INTERPOLATED AF3 F7 F3 FC5 T7 P7 O1 O2 P8 T8 FC6 F4 F8 AF4 RAW_CQ CQ_AF3 CQ_F7 CQ_F3 CQ_FC5 CQ_T7 CQ_P7 CQ_O1 CQ_O2 CQ_P8 CQ_T8 CQ_FC6 CQ_F4 CQ_F8 CQ_AF4 CQ_CMS CQ_DRL GYROX GYROY MARKER, chan:36, units:emotiv
82.00000000000000000000, 0.00000000000000000000, 4047.17938821305050000000, 4748.71783259666060000000, 4215.38451230502690000000, 4636.41014303524930000000, 4289.23066434540670000000, 4838.46142014573340000000, 4282.05117734148100000000, 4297.43579234989370000000, 4492.30758245645210000000, 4828.20501014012550000000, 4483.07681345140460000000, 4209.74348680194270000000, 4518.46142797075390000000, 4271.28194683559290000000, 445.00000000000000000000, 3.00000000000000000000, 4.00000000000000000000, 2.00000000000000000000, 4.00000000000000000000, 4.00000000000000000000, 2.00000000000000000000, 0.00000000000000000000, 0.00000000000000000000, 4.00000000000000000000, 4.00000000000000000000, 2.00000000000000000000, 2.00000000000000000000, 4.00000000000000000000, 3.00000000000000000000, 4.00000000000000000000, 4.00000000000000000000, 1669.00000000000000000000, 1689.00000000000000000000, 0.00000000000000000000
83.00000000000000000000, 0.00000000000000000000, 4044.61528571164810000000, 4749.23065309694080000000, 4216.92297380586840000000, 4640.51270703749290000000, 4292.30758734708980000000, 4835.89731764433150000000, 4284.61527984288300000000, 4299.48707435101550000000, 4485.64091595280660000000, 4823.07680513732160000000, 4485.64091595280660000000, 4210.76912780250310000000, 4528.20501747608160000000, 4270.25630583503150000000, 333.00000000000000000000, 3.00000000000000000000, 4.00000000000000000000, 2.00000000000000000000, 4.00000000000000000000, 4.00000000000000000000, 2.00000000000000000000, 0.00000000000000000000, 0.00000000000000000000, 4.00000000000000000000, 4.00000000000000000000, 2.00000000000000000000, 2.00000000000000000000, 4.00000000000000000000, 3.00000000000000000000, 4.00000000000000000000, 4.00000000000000000000, 1668.00000000000000000000, 1689.00000000000000000000, 0.00000000000000000000
84.00000000000000000000, 0.00000000000000000000, 4045.12810621192880000000, 4755.89731960058630000000, 4218.97425580699020000000, 4644.61527103973640000000, 4289.74348484568780000000, 4839.48706114629480000000, 4281.53835684120080000000, 4298.46143335045510000000, 4485.64091595280660000000, 4834.87167664377100000000, 4477.94860844860070000000, 4214.87169180474670000000, 4517.94860747047280000000, 4275.89733133811660000000, 249.00000000000000000000, 3.00000000000000000000, 4.00000000000000000000, 2.00000000000000000000, 4.00000000000000000000, 4.00000000000000000000, 2.00000000000000000000, 0.00000000000000000000, 0.00000000000000000000, 4.00000000000000000000, 4.00000000000000000000, 2.00000000000000000000, 2.00000000000000000000, 4.00000000000000000000, 3.00000000000000000000, 4.00000000000000000000, 4.00000000000000000000, 1669.00000000000000000000, 1689.00000000000000000000, 0.00000000000000000000
85.00000000000000000000, 0.00000000000000000000, 4049.23067021417180000000, 4764.10244760507340000000, 4219.48707630727040000000, 4644.10245053945530000000, 4292.82040784737000000000, 4839.48706114629480000000, 4277.43579283895720000000, 4295.89733084905220000000, 4486.66655695336790000000, 4836.41013814461170000000, 4476.92296744803930000000, 4216.92297380586840000000, 4505.12809496346290000000, 4278.97425433979880000000, 182.00000000000000000000, 3.00000000000000000000, 4.00000000000000000000, 2.00000000000000000000, 4.00000000000000000000, 4.00000000000000000000, 2.00000000000000000000, 0.00000000000000000000, 0.00000000000000000000, 4.00000000000000000000, 4.00000000000000000000, 2.00000000000000000000, 2.00000000000000000000, 4.00000000000000000000, 3.00000000000000000000, 4.00000000000000000000, 4.00000000000000000000, 1668.00000000000000000000, 1688.00000000000000000000, 0.00000000000000000000
86.00000000000000000000, 0.00000000000000000000, 4053.84605471669560000000, 4764.61526810535360000000, 4218.97425580699020000000, 4642.05116853833440000000, 4308.20502285578280000000, 4835.89731764433150000000, 4278.97425433979880000000, 4296.41015134933330000000, 4476.92296744803930000000, 4824.10244613788200000000, 4483.07681345140460000000, 4211.79476880306450000000, 4511.79476146710840000000, 4274.87169033755530000000, 445.00000000000000000000, 3.00000000000000000000, 4.00000000000000000000, 2.00000000000000000000, 4.00000000000000000000, 4.00000000000000000000, 2.00000000000000000000, 0.00000000000000000000, 0.00000000000000000000, 4.00000000000000000000, 4.00000000000000000000, 2.00000000000000000000, 2.00000000000000000000, 4.00000000000000000000, 3.00000000000000000000, 4.00000000000000000000, 4.00000000000000000000, 1667.00000000000000000000, 1689.00000000000000000000, 0.00000000000000000000
87.00000000000000000000, 0.00000000000000000000, 4055.38451621753710000000, 4764.61526810535360000000, 4218.46143530671000000000, 4642.05116853833440000000, 4309.23066385634320000000, 4838.97424064601360000000, 4281.53835684120080000000, 4298.46143335045510000000, 4471.28194194495520000000, 4823.07680513732160000000, 4481.53835195056310000000, 4212.30758930334470000000, 4519.48706897131430000000, 4272.30758783615330000000, 333.00000000000000000000, 3.00000000000000000000, 4.00000000000000000000, 2.00000000000000000000, 4.00000000000000000000, 4.00000000000000000000, 2.00000000000000000000, 0.00000000000000000000, 0.00000000000000000000, 4.00000000000000000000, 4.00000000000000000000, 2.00000000000000000000, 2.00000000000000000000, 4.00000000000000000000, 3.00000000000000000000, 4.00000000000000000000, 4.00000000000000000000, 1668.00000000000000000000, 1687.00000000000000000000, 0.00000000000000000000
88.00000000000000000000, 0.00000000000000000000, 4055.38451621753710000000, 4765.12808860563380000000, 4220.51271730783080000000, 4641.53834803805330000000, 4295.38451034877200000000, 4838.97424064601360000000, 4279.99989534035920000000, 4297.94861285017400000000, 4479.48706994944220000000, 4831.79475364208790000000, 4483.07681345140460000000, 4214.35887130446640000000, 4509.23065896570640000000, 4274.35886983727510000000, 249.00000000000000000000, 3.00000000000000000000, 4.00000000000000000000, 2.00000000000000000000, 4.00000000000000000000, 4.00000000000000000000, 2.00000000000000000000, 0.00000000000000000000, 0.00000000000000000000, 4.00000000000000000000, 4.00000000000000000000, 2.00000000000000000000, 2.00000000000000000000, 4.00000000000000000000, 3.00000000000000000000, 4.00000000000000000000, 4.00000000000000000000, 1666.00000000000000000000, 1688.00000000000000000000, 0.00000000000000000000
89.00000000000000000000, 0.00000000000000000000, 4054.87169571725640000000, 4762.56398610423180000000, 4223.07681980923370000000, 4643.07680953889480000000, 4294.87168984849180000000, 4834.35885614348990000000, 4278.46143383951860000000, 4296.41015134933330000000, 4489.23065945476990000000, 4830.25629214124730000000, 4485.12809545252640000000, 4210.76912780250310000000, 4509.23065896570640000000, 4273.84604933699480000000, 182.00000000000000000000, 3.00000000000000000000, 4.00000000000000000000, 2.00000000000000000000, 4.00000000000000000000, 4.00000000000000000000, 2.00000000000000000000, 0.00000000000000000000, 0.00000000000000000000, 4.00000000000000000000, 4.00000000000000000000, 2.00000000000000000000, 2.00000000000000000000, 4.00000000000000000000, 3.00000000000000000000, 4.00000000000000000000, 4.00000000000000000000, 1666.00000000000000000000, 1688.00000000000000000000, 0.00000000000000000000
90.00000000000000000000, 0.00000000000000000000, 4058.97425971950000000000, 4765.12808860563380000000, 4224.61528131007440000000, 4649.23065554226010000000, 4304.10245885353920000000, 4835.38449714405120000000, 4280.51271584064030000000, 4295.89733084905220000000, 4492.30758245645210000000, 4833.33321514292950000000, 4483.07681345140460000000, 4212.30758930334470000000, 4531.79476097804400000000, 4277.43579283895720000000, 445.00000000000000000000, 3.00000000000000000000, 4.00000000000000000000, 2.00000000000000000000, 4.00000000000000000000, 4.00000000000000000000, 2.00000000000000000000, 0.00000000000000000000, 0.00000000000000000000, 4.00000000000000000000, 4.00000000000000000000, 2.00000000000000000000, 2.00000000000000000000, 4.00000000000000000000, 3.00000000000000000000, 4.00000000000000000000, 4.00000000000000000000, 1666.00000000000000000000, 1687.00000000000000000000, 0.00000000000000000000
91.00000000000000000000, 0.00000000000000000000, 4063.07682372174350000000, 4768.71783210759710000000, 4225.64092231063570000000, 4648.20501454169880000000, 4301.53835635213730000000, 4836.41013814461170000000, 4279.99989534035920000000, 4296.41015134933330000000, 4491.28194145589170000000, 4847.17936865050070000000, 4486.15373645308680000000, 4220.51271730783080000000, 4543.07681198421320000000, 4290.76912584624820000000, 333.00000000000000000000, 3.00000000000000000000, 4.00000000000000000000, 2.00000000000000000000, 4.00000000000000000000, 4.00000000000000000000, 2.00000000000000000000, 0.00000000000000000000, 0.00000000000000000000, 4.00000000000000000000, 4.00000000000000000000, 2.00000000000000000000, 2.00000000000000000000, 4.00000000000000000000, 3.00000000000000000000, 4.00000000000000000000, 4.00000000000000000000, 1666.00000000000000000000, 1686.00000000000000000000, 0.00000000000000000000
92.00000000000000000000, 0.00000000000000000000, 4062.56400322146280000000, 4765.12808860563380000000, 4228.71784531231790000000, 4639.99988653721270000000, 4298.46143335045510000000, 4833.84603564320970000000, 4276.92297233867700000000, 4297.43579234989370000000, 4491.79476195617190000000, 4854.87167615470660000000, 4492.82040295673230000000, 4222.05117880867240000000, 4538.46142748168950000000, 4297.43579234989370000000, 249.00000000000000000000, 3.00000000000000000000, 4.00000000000000000000, 2.00000000000000000000, 4.00000000000000000000, 4.00000000000000000000, 2.00000000000000000000, 0.00000000000000000000, 0.00000000000000000000, 4.00000000000000000000, 4.00000000000000000000, 2.00000000000000000000, 2.00000000000000000000, 4.00000000000000000000, 3.00000000000000000000, 4.00000000000000000000, 4.00000000000000000000, 1665.00000000000000000000, 1687.00000000000000000000, 0.00000000000000000000
93.00000000000000000000, 0.00000000000000000000, 4059.99990072006090000000, 4762.56398610423180000000, 4231.79476831400010000000, 4642.05116853833440000000, 4307.69220235550260000000, 4832.30757414236900000000, 4279.48707484007900000000, 4297.94861285017400000000, 4496.92296695897580000000, 4855.38449665498770000000, 4495.38450545813430000000, 4219.48707630727040000000, 4534.35886347944600000000, 4288.20502334484630000000, 182.00000000000000000000, 3.00000000000000000000, 4.00000000000000000000, 2.00000000000000000000, 4.00000000000000000000, 4.00000000000000000000, 2.00000000000000000000, 0.00000000000000000000, 0.00000000000000000000, 4.00000000000000000000, 4.00000000000000000000, 2.00000000000000000000, 2.00000000000000000000, 4.00000000000000000000, 3.00000000000000000000, 4.00000000000000000000, 4.00000000000000000000, 1666.00000000000000000000, 1686.00000000000000000000, 0.00000000000000000000
94.00000000000000000000, 0.00000000000000000000, 4062.05118272118260000000, 4764.10244760507340000000, 4230.76912731343960000000, 4649.74347604254040000000, 4306.15374085466100000000, 4835.38449714405120000000, 4281.53835684120080000000, 4297.43579234989370000000, 4498.97424896009760000000, 4857.43577865610950000000, 4492.30758245645210000000, 4221.53835830839220000000, 4533.33322247888550000000, 4286.66656184400470000000, 445.00000000000000000000, 3.00000000000000000000, 4.00000000000000000000, 2.00000000000000000000, 4.00000000000000000000, 4.00000000000000000000, 2.00000000000000000000, 0.00000000000000000000, 0.00000000000000000000, 4.00000000000000000000, 4.00000000000000000000, 2.00000000000000000000, 2.00000000000000000000, 4.00000000000000000000, 3.00000000000000000000, 4.00000000000000000000, 4.00000000000000000000, 1666.00000000000000000000, 1686.00000000000000000000, 0.00000000000000000000
95.00000000000000000000, 0.00000000000000000000, 4063.07682372174350000000, 4764.61526810535360000000, 4226.15374281091590000000, 4649.74347604254040000000, 4298.97425385073530000000, 4834.35885614348990000000, 4278.46143383951860000000, 4297.94861285017400000000, 4489.74347995505010000000, 4849.74347115190270000000, 4490.25630045533030000000, 4222.56399930895260000000, 4535.89732498028750000000, 4296.92297184961350000000, 333.00000000000000000000, 3.00000000000000000000, 4.00000000000000000000, 2.00000000000000000000, 4.00000000000000000000, 4.00000000000000000000, 2.00000000000000000000, 0.00000000000000000000, 0.00000000000000000000, 4.00000000000000000000, 4.00000000000000000000, 2.00000000000000000000, 2.00000000000000000000, 4.00000000000000000000, 3.00000000000000000000, 4.00000000000000000000, 4.00000000000000000000, 1666.00000000000000000000, 1687.00000000000000000000, 0.00000000000000000000
96.00000000000000000000, 0.00000000000000000000, 4059.99990072006090000000, 4765.64090910591400000000, 4225.12810181035550000000, 4647.69219404141860000000, 4307.17938185522140000000, 4829.23065114068590000000, 4275.89733133811660000000, 4297.94861285017400000000, 4482.56399295112440000000, 4834.87167664377100000000, 4490.76912095561060000000, 4218.97425580699020000000, 4528.71783797636180000000, 4294.35886934821160000000, 249.00000000000000000000, 3.00000000000000000000, 4.00000000000000000000, 2.00000000000000000000, 4.00000000000000000000, 4.00000000000000000000, 2.00000000000000000000, 0.00000000000000000000, 0.00000000000000000000, 4.00000000000000000000, 4.00000000000000000000, 2.00000000000000000000, 2.00000000000000000000, 4.00000000000000000000, 3.00000000000000000000, 4.00000000000000000000, 4.00000000000000000000, 1667.00000000000000000000, 1686.00000000000000000000, 0.00000000000000000000
97.00000000000000000000, 0.00000000000000000000, 4057.43579821865890000000, 4766.66655010647540000000, 4225.64092231063570000000, 4649.23065554226010000000, 4316.41015086026890000000, 4829.23065114068590000000, 4278.97425433979880000000, 4297.43579234989370000000, 4486.15373645308680000000, 4833.84603564320970000000, 4487.17937745364820000000, 4211.79476880306450000000, 4518.46142797075390000000, 4281.02553634092060000000, 182.00000000000000000000, 3.00000000000000000000, 4.00000000000000000000, 2.00000000000000000000, 4.00000000000000000000, 4.00000000000000000000, 2.00000000000000000000, 0.00000000000000000000, 0.00000000000000000000, 4.00000000000000000000, 4.00000000000000000000, 2.00000000000000000000, 2.00000000000000000000, 4.00000000000000000000, 3.00000000000000000000, 4.00000000000000000000, 4.00000000000000000000, 1667.00000000000000000000, 1687.00000000000000000000, 0.00000000000000000000
98.00000000000000000000, 0.00000000000000000000, 4051.79477271557430000000, 4765.12808860563380000000, 4219.99989680755060000000, 4646.66655304085820000000, 4305.12809985409970000000, 4834.35885614348990000000, 4282.56399784176210000000, 4297.43579234989370000000, 4483.58963395168480000000, 4836.41013814461170000000, 4475.89732644747890000000, 4207.69220480082090000000, 4516.92296646991240000000, 4274.87169033755530000000, 445.00000000000000000000, 3.00000000000000000000, 4.00000000000000000000, 2.00000000000000000000, 4.00000000000000000000, 4.00000000000000000000, 2.00000000000000000000, 0.00000000000000000000, 0.00000000000000000000, 4.00000000000000000000, 4.00000000000000000000, 2.00000000000000000000, 2.00000000000000000000, 4.00000000000000000000, 3.00000000000000000000, 4.00000000000000000000, 4.00000000000000000000, 1668.00000000000000000000, 1686.00000000000000000000, 0.00000000000000000000
99.00000000000000000000, 0.00000000000000000000, 4049.23067021417180000000, 4763.07680660451210000000, 4219.48707630727040000000, 4644.61527103973640000000, 4299.48707435101550000000, 4837.43577914517300000000, 4282.05117734148100000000, 4297.43579234989370000000, 4483.07681345140460000000, 4832.82039464264930000000, 4477.94860844860070000000, 4212.30758930334470000000, 4503.58963346262140000000, 4277.43579283895720000000, 333.00000000000000000000, 3.00000000000000000000, 4.00000000000000000000, 2.00000000000000000000, 4.00000000000000000000, 4.00000000000000000000, 2.00000000000000000000, 0.00000000000000000000, 0.00000000000000000000, 4.00000000000000000000, 4.00000000000000000000, 2.00000000000000000000, 2.00000000000000000000, 4.00000000000000000000, 3.00000000000000000000, 4.00000000000000000000, 4.00000000000000000000, 1667.00000000000000000000, 1686.00000000000000000000, 0.00000000000000000000
100.00000000000000000000, 0.00000000000000000000, 4053.84605471669560000000, 4767.69219110703580000000, 4227.69220431175750000000, 4651.28193754338190000000, 4313.84604835886690000000, 4836.41013814461170000000, 4280.51271584064030000000, 4297.43579234989370000000, 4491.79476195617190000000, 4833.84603564320970000000, 4489.74347995505010000000, 4218.46143530671000000000, 4502.05117196177980000000, 4279.48707484007900000000, 249.00000000000000000000, 3.00000000000000000000, 4.00000000000000000000, 2.00000000000000000000, 4.00000000000000000000, 4.00000000000000000000, 2.00000000000000000000, 0.00000000000000000000, 0.00000000000000000000, 4.00000000000000000000, 4.00000000000000000000, 2.00000000000000000000, 2.00000000000000000000, 4.00000000000000000000, 3.00000000000000000000, 4.00000000000000000000, 4.00000000000000000000, 1668.00000000000000000000, 1686.00000000000000000000, 0.00000000000000000000
101.00000000000000000000, 0.00000000000000000000, 4053.33323421641530000000, 4768.71783210759710000000, 4225.12810181035550000000, 4650.25629654282060000000, 4314.35886885914720000000, 4835.89731764433150000000, 4280.51271584064030000000, 4297.43579234989370000000, 4486.15373645308680000000, 4837.94859964545320000000, 4483.07681345140460000000, 4213.84605080418620000000, 4530.76911997748360000000, 4278.46143383951860000000, 182.00000000000000000000, 3.00000000000000000000, 4.00000000000000000000, 2.00000000000000000000, 4.00000000000000000000, 4.00000000000000000000, 2.00000000000000000000, 0.00000000000000000000, 0.00000000000000000000, 4.00000000000000000000, 4.00000000000000000000, 2.00000000000000000000, 2.00000000000000000000, 4.00000000000000000000, 3.00000000000000000000, 4.00000000000000000000, 4.00000000000000000000, 1668.00000000000000000000, 1686.00000000000000000000, 0.00000000000000000000
102.00000000000000000000, 0.00000000000000000000, 4050.25631121473270000000, 4761.02552460339030000000, 4217.43579430614860000000, 4640.51270703749290000000, 4305.12809985409970000000, 4836.41013814461170000000, 4281.02553634092060000000, 4297.43579234989370000000, 4471.28194194495520000000, 4833.84603564320970000000, 4473.84604444635720000000, 4206.15374329997940000000, 4541.02552998309150000000, 4275.38451083783550000000, 445.00000000000000000000, 3.00000000000000000000, 4.00000000000000000000, 2.00000000000000000000, 4.00000000000000000000, 4.00000000000000000000, 2.00000000000000000000, 0.00000000000000000000, 0.00000000000000000000, 4.00000000000000000000, 4.00000000000000000000, 2.00000000000000000000, 2.00000000000000000000, 4.00000000000000000000, 3.00000000000000000000, 4.00000000000000000000, 4.00000000000000000000, 1669.00000000000000000000, 1687.00000000000000000000, 0.00000000000000000000
103.00000000000000000000, 0.00000000000000000000, 4053.84605471669560000000, 4761.02552460339030000000, 4219.48707630727040000000, 4637.43578403580980000000, 4305.12809985409970000000, 4836.41013814461170000000, 4282.05117734148100000000, 4297.43579234989370000000, 4478.97424944916110000000, 4830.76911264152750000000, 4483.58963395168480000000, 4209.23066630166250000000, 4527.17937647552030000000, 4275.38451083783550000000, 333.00000000000000000000, 3.00000000000000000000, 4.00000000000000000000, 2.00000000000000000000, 4.00000000000000000000, 4.00000000000000000000, 2.00000000000000000000, 0.00000000000000000000, 0.00000000000000000000, 4.00000000000000000000, 4.00000000000000000000, 2.00000000000000000000, 2.00000000000000000000, 4.00000000000000000000, 3.00000000000000000000, 4.00000000000000000000, 4.00000000000000000000, 1667.00000000000000000000, 1686.00000000000000000000, 0.00000000000000000000
104.00000000000000000000, 0.00000000000000000000, 4055.89733671781730000000, 4761.02552460339030000000, 4222.56399930895260000000, 4638.97424553665130000000, 4310.76912535718470000000, 4837.43577914517300000000, 4280.51271584064030000000, 4297.43579234989370000000, 4489.23065945476990000000, 4839.99988164657500000000, 4493.84604395729370000000, 4215.89733280530710000000, 4514.87168446879060000000, 4278.46143383951860000000, 249.00000000000000000000, 3.00000000000000000000, 4.00000000000000000000, 2.00000000000000000000, 4.00000000000000000000, 4.00000000000000000000, 2.00000000000000000000, 0.00000000000000000000, 0.00000000000000000000, 4.00000000000000000000, 4.00000000000000000000, 2.00000000000000000000, 2.00000000000000000000, 4.00000000000000000000, 3.00000000000000000000, 4.00000000000000000000, 4.00000000000000000000, 1668.00000000000000000000, 1687.00000000000000000000, 0.00000000000000000000
105.00000000000000000000, 0.00000000000000000000, 4050.76913171501340000000, 4755.89731960058630000000, 4221.02553780811190000000, 4635.89732253496910000000, 4310.25630485690450000000, 4835.89731764433150000000, 4277.43579283895720000000, 4296.92297184961350000000, 4484.61527495224620000000, 4849.23065065162250000000, 4491.28194145589170000000, 4213.33323030390510000000, 4510.76912046654710000000, 4278.46143383951860000000, 182.00000000000000000000, 3.00000000000000000000, 4.00000000000000000000, 2.00000000000000000000, 4.00000000000000000000, 4.00000000000000000000, 2.00000000000000000000, 0.00000000000000000000, 0.00000000000000000000, 4.00000000000000000000, 4.00000000000000000000, 2.00000000000000000000, 2.00000000000000000000, 4.00000000000000000000, 3.00000000000000000000, 4.00000000000000000000, 4.00000000000000000000, 1668.00000000000000000000, 1687.00000000000000000000, 0.00000000000000000000
106.00000000000000000000, 0.00000000000000000000, 4051.28195221529360000000, 4758.46142210198830000000, 4221.02553780811190000000, 4634.35886103412760000000, 4305.12809985409970000000, 4835.89731764433150000000, 4277.43579283895720000000, 4297.94861285017400000000, 4481.02553145028290000000, 4847.17936865050070000000, 4484.10245445196600000000, 4210.76912780250310000000, 4519.99988947159450000000, 4275.38451083783550000000, 445.00000000000000000000, 3.00000000000000000000, 4.00000000000000000000, 2.00000000000000000000, 4.00000000000000000000, 4.00000000000000000000, 2.00000000000000000000, 0.00000000000000000000, 0.00000000000000000000, 4.00000000000000000000, 4.00000000000000000000, 2.00000000000000000000, 2.00000000000000000000, 4.00000000000000000000, 3.00000000000000000000, 4.00000000000000000000, 4.00000000000000000000, 1668.00000000000000000000, 1687.00000000000000000000, 0.00000000000000000000
107.00000000000000000000, 0.00000000000000000000, 4053.84605471669560000000, 4765.12808860563380000000, 4221.02553780811190000000, 4635.38450203468890000000, 4305.64092035438080000000, 4837.43577914517300000000, 4278.46143383951860000000, 4298.46143335045510000000, 4483.58963395168480000000, 4833.33321514292950000000, 4480.51271095000270000000, 4212.82040980362490000000, 4538.97424798197060000000, 4276.41015183839680000000, 333.00000000000000000000, 3.00000000000000000000, 4.00000000000000000000, 2.00000000000000000000, 4.00000000000000000000, 4.00000000000000000000, 2.00000000000000000000, 0.00000000000000000000, 0.00000000000000000000, 4.00000000000000000000, 4.00000000000000000000, 2.00000000000000000000, 2.00000000000000000000, 4.00000000000000000000, 3.00000000000000000000, 4.00000000000000000000, 4.00000000000000000000, 1668.00000000000000000000, 1685.00000000000000000000, 0.00000000000000000000
108.00000000000000000000, 0.00000000000000000000, 4053.84605471669560000000, 4765.12808860563380000000, 4217.94861480642880000000, 4632.82039953328600000000, 4312.82040735830650000000, 4835.89731764433150000000, 4279.99989534035920000000, 4296.92297184961350000000, 4487.17937745364820000000, 4828.20501014012550000000, 4487.69219795392840000000, 4212.82040980362490000000, 4537.43578648112910000000, 4278.46143383951860000000, 249.00000000000000000000, 3.00000000000000000000, 4.00000000000000000000, 2.00000000000000000000, 4.00000000000000000000, 4.00000000000000000000, 2.00000000000000000000, 0.00000000000000000000, 0.00000000000000000000, 4.00000000000000000000, 4.00000000000000000000, 2.00000000000000000000, 2.00000000000000000000, 4.00000000000000000000, 3.00000000000000000000, 4.00000000000000000000, 4.00000000000000000000, 1667.00000000000000000000, 1687.00000000000000000000, 0.00000000000000000000
109.00000000000000000000, 0.00000000000000000000, 4053.33323421641530000000, 4765.12808860563380000000, 4216.92297380586840000000, 4633.33322003356720000000, 4316.92297136055000000000, 4834.87167664377100000000, 4281.53835684120080000000, 4296.92297184961350000000, 4484.10245445196600000000, 4830.76911264152750000000, 4490.25630045533030000000, 4211.28194830278330000000, 4511.28194096682730000000, 4277.43579283895720000000, 182.00000000000000000000, 3.00000000000000000000, 4.00000000000000000000, 2.00000000000000000000, 4.00000000000000000000, 4.00000000000000000000, 2.00000000000000000000, 0.00000000000000000000, 0.00000000000000000000, 4.00000000000000000000, 4.00000000000000000000, 2.00000000000000000000, 2.00000000000000000000, 4.00000000000000000000, 3.00000000000000000000, 4.00000000000000000000, 4.00000000000000000000, 1669.00000000000000000000, 1684.00000000000000000000, 0.00000000000000000000
110.00000000000000000000, 0.00000000000000000000, 4049.23067021417180000000, 4760.51270410311010000000, 4215.89733280530710000000, 4639.48706603693150000000, 4311.79476635774520000000, 4835.38449714405120000000, 4278.97425433979880000000, 4297.94861285017400000000, 4476.41014694775910000000, 4829.23065114068590000000, 4477.94860844860070000000, 4213.33323030390510000000, 4498.46142845981740000000, 4277.43579283895720000000, 445.00000000000000000000, 3.00000000000000000000, 4.00000000000000000000, 2.00000000000000000000, 4.00000000000000000000, 4.00000000000000000000, 2.00000000000000000000, 0.00000000000000000000, 0.00000000000000000000, 4.00000000000000000000, 4.00000000000000000000, 2.00000000000000000000, 2.00000000000000000000, 4.00000000000000000000, 3.00000000000000000000, 4.00000000000000000000, 4.00000000000000000000, 1668.00000000000000000000, 1685.00000000000000000000, 0.00000000000000000000
111.00000000000000000000, 0.00000000000000000000, 4049.74349071445250000000, 4753.33321709918440000000, 4216.41015330558820000000, 4641.53834803805330000000, 4308.71784335606300000000, 4836.41013814461170000000, 4277.43579283895720000000, 4296.92297184961350000000, 4474.35886494663740000000, 4826.15372813900380000000, 4477.43578794832050000000, 4214.35887130446640000000, 4508.71783846542530000000, 4278.97425433979880000000, 333.00000000000000000000, 3.00000000000000000000, 4.00000000000000000000, 2.00000000000000000000, 4.00000000000000000000, 4.00000000000000000000, 2.00000000000000000000, 0.00000000000000000000, 0.00000000000000000000, 4.00000000000000000000, 4.00000000000000000000, 2.00000000000000000000, 2.00000000000000000000, 4.00000000000000000000, 3.00000000000000000000, 4.00000000000000000000, 4.00000000000000000000, 1668.00000000000000000000, 1685.00000000000000000000, 0.00000000000000000000
112.00000000000000000000, 0.00000000000000000000, 4053.84605471669560000000, 4757.94860160170810000000, 4217.94861480642880000000, 4641.02552753777310000000, 4313.84604835886690000000, 4836.92295864489280000000, 4280.51271584064030000000, 4295.38451034877200000000, 4474.35886494663740000000, 4826.15372813900380000000, 4485.64091595280660000000, 4209.74348680194270000000, 4521.02553047215590000000, 4275.89733133811660000000, 249.00000000000000000000, 3.00000000000000000000, 4.00000000000000000000, 2.00000000000000000000, 4.00000000000000000000, 4.00000000000000000000, 2.00000000000000000000, 0.00000000000000000000, 0.00000000000000000000, 4.00000000000000000000, 4.00000000000000000000, 2.00000000000000000000, 2.00000000000000000000, 4.00000000000000000000, 3.00000000000000000000, 4.00000000000000000000, 4.00000000000000000000, 1668.00000000000000000000, 1685.00000000000000000000, 0.00000000000000000000
113.00000000000000000000, 0.00000000000000000000, 4054.35887521697620000000, 4765.12808860563380000000, 4218.46143530671000000000, 4642.56398903861460000000, 4318.46143286139070000000, 4838.46142014573340000000, 4281.53835684120080000000, 4296.92297184961350000000, 4473.33322394607690000000, 4825.64090763872350000000, 4479.99989044972240000000, 4207.17938430054070000000, 4526.15373547495980000000, 4274.35886983727510000000, 182.00000000000000000000, 3.00000000000000000000, 4.00000000000000000000, 2.00000000000000000000, 4.00000000000000000000, 4.00000000000000000000, 2.00000000000000000000, 0.00000000000000000000, 0.00000000000000000000, 4.00000000000000000000, 4.00000000000000000000, 2.00000000000000000000, 2.00000000000000000000, 4.00000000000000000000, 3.00000000000000000000, 4.00000000000000000000, 4.00000000000000000000, 1668.00000000000000000000, 1685.00000000000000000000, 0.00000000000000000000
114.00000000000000000000, 0.00000000000000000000, 4053.84605471669560000000, 4773.84603711040110000000, 4219.99989680755060000000, 4647.17937354113840000000, 4322.05117636335400000000, 4835.89731764433150000000, 4277.94861333923840000000, 4297.43579234989370000000, 4478.97424944916110000000, 4825.64090763872350000000, 4479.48706994944220000000, 4208.20502530110120000000, 4527.69219697580140000000, 4277.43579283895720000000, 445.00000000000000000000, 3.00000000000000000000, 4.00000000000000000000, 2.00000000000000000000, 4.00000000000000000000, 4.00000000000000000000, 2.00000000000000000000, 0.00000000000000000000, 0.00000000000000000000, 4.00000000000000000000, 4.00000000000000000000, 2.00000000000000000000, 2.00000000000000000000, 4.00000000000000000000, 3.00000000000000000000, 4.00000000000000000000, 4.00000000000000000000, 1668.00000000000000000000, 1686.00000000000000000000, 0.00000000000000000000
115.00000000000000000000, 0.00000000000000000000, 4057.43579821865890000000, 4780.51270361404660000000, 4224.10246080979410000000, 4650.25629654282060000000, 4327.17938136615790000000, 4834.35885614348990000000, 4278.97425433979880000000, 4296.92297184961350000000, 4483.58963395168480000000, 4837.43577914517300000000, 4490.25630045533030000000, 4211.28194830278330000000, 4528.20501747608160000000, 4279.99989534035920000000, 333.00000000000000000000, 3.00000000000000000000, 4.00000000000000000000, 2.00000000000000000000, 4.00000000000000000000, 4.00000000000000000000, 2.00000000000000000000, 0.00000000000000000000, 0.00000000000000000000, 4.00000000000000000000, 4.00000000000000000000, 2.00000000000000000000, 2.00000000000000000000, 4.00000000000000000000, 3.00000000000000000000, 4.00000000000000000000, 4.00000000000000000000, 1668.00000000000000000000, 1686.00000000000000000000, 0.00000000000000000000
116.00000000000000000000, 0.00000000000000000000, 4062.05118272118260000000, 4774.35885761068130000000, 4227.17938381147630000000, 4648.20501454169880000000, 4337.43579137176680000000, 4838.46142014573340000000, 4281.53835684120080000000, 4297.43579234989370000000, 4485.12809545252640000000, 4851.79475315302440000000, 4492.82040295673230000000, 4216.41015330558820000000, 4530.25629947720340000000, 4284.61527984288300000000, 249.00000000000000000000, 3.00000000000000000000, 4.00000000000000000000, 2.00000000000000000000, 4.00000000000000000000, 4.00000000000000000000, 2.00000000000000000000, 0.00000000000000000000, 0.00000000000000000000, 4.00000000000000000000, 4.00000000000000000000, 2.00000000000000000000, 2.00000000000000000000, 4.00000000000000000000, 3.00000000000000000000, 4.00000000000000000000, 4.00000000000000000000, 1667.00000000000000000000, 1686.00000000000000000000, 0.00000000000000000000
117.00000000000000000000, 0.00000000000000000000, 4062.05118272118260000000, 4764.10244760507340000000, 4228.20502481203770000000, 4638.97424553665130000000, 4336.41015037120540000000, 4839.99988164657500000000, 4281.53835684120080000000, 4296.92297184961350000000, 4490.76912095561060000000, 4853.84603515414620000000, 4489.74347995505010000000, 4217.43579430614860000000, 4530.25629947720340000000, 4289.23066434540670000000, 182.00000000000000000000, 3.00000000000000000000, 4.00000000000000000000, 2.00000000000000000000, 4.00000000000000000000, 4.00000000000000000000, 2.00000000000000000000, 0.00000000000000000000, 0.00000000000000000000, 4.00000000000000000000, 4.00000000000000000000, 2.00000000000000000000, 2.00000000000000000000, 4.00000000000000000000, 3.00000000000000000000, 4.00000000000000000000, 4.00000000000000000000, 1668.00000000000000000000, 1687.00000000000000000000, 0.00000000000000000000
118.00000000000000000000, 0.00000000000000000000, 4056.92297771837820000000, 4761.53834510367140000000, 4225.64092231063570000000, 4630.76911753216520000000, 4316.41015086026890000000, 4837.94859964545320000000, 4281.02553634092060000000, 4295.89733084905220000000, 4493.33322345701340000000, 4845.64090714965910000000, 4492.30758245645210000000, 4216.41015330558820000000, 4519.99988947159450000000, 4284.61527984288300000000, 445.00000000000000000000, 3.00000000000000000000, 4.00000000000000000000, 2.00000000000000000000, 4.00000000000000000000, 4.00000000000000000000, 2.00000000000000000000, 0.00000000000000000000, 0.00000000000000000000, 4.00000000000000000000, 4.00000000000000000000, 2.00000000000000000000, 2.00000000000000000000, 4.00000000000000000000, 3.00000000000000000000, 4.00000000000000000000, 4.00000000000000000000, 1667.00000000000000000000, 1687.00000000000000000000, 0.00000000000000000000
119.00000000000000000000, 0.00000000000000000000, 4052.82041371613510000000, 4759.99988360282990000000, 4223.07681980923370000000, 4631.79475853272560000000, 4305.64092035438080000000, 4839.48706114629480000000, 4280.51271584064030000000, 4296.92297184961350000000, 4488.71783895448970000000, 4839.48706114629480000000, 4492.30758245645210000000, 4217.43579430614860000000, 4518.46142797075390000000, 4283.07681834204230000000, 333.00000000000000000000, 3.00000000000000000000, 4.00000000000000000000, 2.00000000000000000000, 4.00000000000000000000, 4.00000000000000000000, 2.00000000000000000000, 0.00000000000000000000, 0.00000000000000000000, 4.00000000000000000000, 4.00000000000000000000, 2.00000000000000000000, 2.00000000000000000000, 4.00000000000000000000, 3.00000000000000000000, 4.00000000000000000000, 4.00000000000000000000, 1667.00000000000000000000, 1686.00000000000000000000, 0.00000000000000000000
120.00000000000000000000, 0.00000000000000000000, 4055.38451621753710000000, 4757.94860160170810000000, 4223.07681980923370000000, 4634.35886103412760000000, 4310.25630485690450000000, 4840.51270214685520000000, 4278.97425433979880000000, 4297.43579234989370000000, 4486.15373645308680000000, 4841.02552264713540000000, 4489.23065945476990000000, 4215.89733280530710000000, 4525.12809447439850000000, 4287.69220284456610000000, 249.00000000000000000000, 3.00000000000000000000, 4.00000000000000000000, 2.00000000000000000000, 4.00000000000000000000, 4.00000000000000000000, 2.00000000000000000000, 0.00000000000000000000, 0.00000000000000000000, 4.00000000000000000000, 4.00000000000000000000, 2.00000000000000000000, 2.00000000000000000000, 4.00000000000000000000, 3.00000000000000000000, 4.00000000000000000000, 4.00000000000000000000, 1667.00000000000000000000, 1687.00000000000000000000, 0.00000000000000000000
121.00000000000000000000, 0.00000000000000000000, 4055.38451621753710000000, 4761.02552460339030000000, 4224.10246080979410000000, 4633.33322003356720000000, 4312.82040735830650000000, 4836.41013814461170000000, 4276.92297233867700000000, 4296.41015134933330000000, 4483.58963395168480000000, 4839.99988164657500000000, 4490.25630045533030000000, 4211.79476880306450000000, 4523.58963297355790000000, 4286.15374134372450000000, 182.00000000000000000000, 3.00000000000000000000, 4.00000000000000000000, 2.00000000000000000000, 4.00000000000000000000, 4.00000000000000000000, 2.00000000000000000000, 0.00000000000000000000, 0.00000000000000000000, 4.00000000000000000000, 4.00000000000000000000, 2.00000000000000000000, 2.00000000000000000000, 4.00000000000000000000, 3.00000000000000000000, 4.00000000000000000000, 4.00000000000000000000, 1666.00000000000000000000, 1687.00000000000000000000, 0.00000000000000000000
122.00000000000000000000, 0.00000000000000000000, 4050.76913171501340000000, 4758.46142210198830000000, 4225.64092231063570000000, 4632.82039953328600000000, 4309.23066385634320000000, 4834.35885614348990000000, 4277.43579283895720000000, 4296.92297184961350000000, 4476.92296744803930000000, 4830.25629214124730000000, 4490.76912095561060000000, 4210.25630730222290000000, 4522.05117147271630000000, 4279.99989534035920000000, 445.00000000000000000000, 3.00000000000000000000, 4.00000000000000000000, 2.00000000000000000000, 4.00000000000000000000, 4.00000000000000000000, 2.00000000000000000000, 0.00000000000000000000, 0.00000000000000000000, 4.00000000000000000000, 4.00000000000000000000, 2.00000000000000000000, 2.00000000000000000000, 4.00000000000000000000, 3.00000000000000000000, 4.00000000000000000000, 4.00000000000000000000, 1666.00000000000000000000, 1686.00000000000000000000, 0.00000000000000000000
123.00000000000000000000, 0.00000000000000000000, 4048.20502921361140000000, 4750.76911459778240000000, 4223.07681980923370000000, 4634.87168153440780000000, 4306.66656135494120000000, 4831.79475364208790000000, 4278.46143383951860000000, 4297.94861285017400000000, 4472.30758294551560000000, 4818.46142063479780000000, 4481.53835195056310000000, 4211.79476880306450000000, 4520.51270997187480000000, 4277.94861333923840000000, 333.00000000000000000000, 3.00000000000000000000, 4.00000000000000000000, 2.00000000000000000000, 4.00000000000000000000, 4.00000000000000000000, 2.00000000000000000000, 0.00000000000000000000, 0.00000000000000000000, 4.00000000000000000000, 4.00000000000000000000, 2.00000000000000000000, 2.00000000000000000000, 4.00000000000000000000, 3.00000000000000000000, 4.00000000000000000000, 4.00000000000000000000, 1667.00000000000000000000, 1686.00000000000000000000, 0.00000000000000000000
124.00000000000000000000, 0.00000000000000000000, 4050.76913171501340000000, 4753.84603759946460000000, 4219.48707630727040000000, 4637.94860453609090000000, 4306.15374085466100000000, 4828.20501014012550000000, 4278.97425433979880000000, 4297.43579234989370000000, 4470.76912144467500000000, 4811.79475413115230000000, 4478.46142894888090000000, 4210.25630730222290000000, 4513.84604346823020000000, 4278.46143383951860000000, 249.00000000000000000000, 3.00000000000000000000, 4.00000000000000000000, 2.00000000000000000000, 4.00000000000000000000, 4.00000000000000000000, 2.00000000000000000000, 0.00000000000000000000, 0.00000000000000000000, 4.00000000000000000000, 4.00000000000000000000, 2.00000000000000000000, 2.00000000000000000000, 4.00000000000000000000, 3.00000000000000000000, 4.00000000000000000000, 4.00000000000000000000, 1666.00000000000000000000, 1686.00000000000000000000, 0.00000000000000000000
125.00000000000000000000, 0.00000000000000000000, 4055.89733671781730000000, 4766.15372960619520000000, 4225.64092231063570000000, 4640.51270703749290000000, 4313.33322785858670000000, 4828.20501014012550000000, 4279.99989534035920000000, 4296.41015134933330000000, 4473.84604444635720000000, 4808.71783112946920000000, 4487.69219795392840000000, 4208.71784580138140000000, 4506.66655646430350000000, 4278.97425433979880000000, 182.00000000000000000000, 3.00000000000000000000, 4.00000000000000000000, 2.00000000000000000000, 4.00000000000000000000, 4.00000000000000000000, 2.00000000000000000000, 0.00000000000000000000, 0.00000000000000000000, 4.00000000000000000000, 4.00000000000000000000, 2.00000000000000000000, 2.00000000000000000000, 4.00000000000000000000, 3.00000000000000000000, 4.00000000000000000000, 4.00000000000000000000, 1667.00000000000000000000, 1686.00000000000000000000, 0.00000000000000000000
126.00000000000000000000, 0.00000000000000000000, 4054.35887521697620000000, 4768.71783210759710000000, 4229.23066581259810000000, 4640.51270703749290000000, 4318.97425336167090000000, 4829.23065114068590000000, 4281.53835684120080000000, 4296.92297184961350000000, 4475.89732644747890000000, 4814.87167713283450000000, 4485.12809545252640000000, 4210.25630730222290000000, 4509.23065896570640000000, 4279.99989534035920000000, 445.00000000000000000000, 3.00000000000000000000, 4.00000000000000000000, 2.00000000000000000000, 4.00000000000000000000, 4.00000000000000000000, 2.00000000000000000000, 0.00000000000000000000, 0.00000000000000000000, 4.00000000000000000000, 4.00000000000000000000, 2.00000000000000000000, 2.00000000000000000000, 4.00000000000000000000, 3.00000000000000000000, 4.00000000000000000000, 4.00000000000000000000, 1667.00000000000000000000, 1685.00000000000000000000, 0.00000000000000000000
127.00000000000000000000, 0.00000000000000000000, 4049.74349071445250000000, 4764.61526810535360000000, 4222.05117880867240000000, 4641.02552753777310000000, 4311.28194585746500000000, 4829.74347164096620000000, 4281.53835684120080000000, 4297.94861285017400000000, 4473.84604444635720000000, 4830.25629214124730000000, 4478.97424944916110000000, 4213.33323030390510000000, 4517.43578697019260000000, 4280.51271584064030000000, 333.00000000000000000000, 3.00000000000000000000, 4.00000000000000000000, 2.00000000000000000000, 4.00000000000000000000, 4.00000000000000000000, 2.00000000000000000000, 0.00000000000000000000, 0.00000000000000000000, 4.00000000000000000000, 4.00000000000000000000, 2.00000000000000000000, 2.00000000000000000000, 4.00000000000000000000, 3.00000000000000000000, 4.00000000000000000000, 4.00000000000000000000, 1665.00000000000000000000, 1687.00000000000000000000, 0.00000000000000000000
128.00000000000000000000, 0.00000000000000000000, 4053.33323421641530000000, 4764.10244760507340000000, 4220.51271730783080000000, 4638.46142503637110000000, 4303.07681785297880000000, 4833.33321514292950000000, 4281.02553634092060000000, 4296.41015134933330000000, 4472.82040344579670000000, 4834.87167664377100000000, 4489.23065945476990000000, 4215.89733280530710000000, 4520.51270997187480000000, 4279.48707484007900000000, 249.00000000000000000000, 3.00000000000000000000, 4.00000000000000000000, 2.00000000000000000000, 4.00000000000000000000, 4.00000000000000000000, 2.00000000000000000000, 0.00000000000000000000, 0.00000000000000000000, 4.00000000000000000000, 4.00000000000000000000, 2.00000000000000000000, 2.00000000000000000000, 4.00000000000000000000, 3.00000000000000000000, 4.00000000000000000000, 4.00000000000000000000, 1668.00000000000000000000, 1685.00000000000000000000, 0.00000000000000000000
0.00000000000000000000, 0.00000000000000000000, 4058.46143921921930000000, 4764.61526810535360000000, 4223.58964030951390000000, 4630.25629703188410000000, 4305.12809985409970000000, 4835.38449714405120000000, 4282.05117734148100000000, 4296.41015134933330000000, 4479.99989044972240000000, 4833.33321514292950000000, 4493.33322345701340000000, 4216.92297380586840000000, 4523.07681247327760000000, 4278.97425433979880000000, 262.00000000000000000000, 3.00000000000000000000, 4.00000000000000000000, 2.00000000000000000000, 4.00000000000000000000, 4.00000000000000000000, 2.00000000000000000000, 0.00000000000000000000, 0.00000000000000000000, 4.00000000000000000000, 4.00000000000000000000, 2.00000000000000000000, 2.00000000000000000000, 4.00000000000000000000, 3.00000000000000000000, 4.00000000000000000000, 4.00000000000000000000, 1667.00000000000000000000, 1686.00000000000000000000, 0.00000000000000000000
1.00000000000000000000, 0.00000000000000000000, 4059.48708021978020000000, 4765.12808860563380000000, 4220.51271730783080000000, 4636.92296353552960000000, 4310.25630485690450000000, 4834.87167664377100000000, 4279.48707484007900000000, 4297.94861285017400000000, 4490.25630045533030000000, 4842.56398414797700000000, 4489.23065945476990000000, 4218.97425580699020000000, 4528.20501747608160000000, 4287.17938234428580000000, 422.00000000000000000000, 3.00000000000000000000, 4.00000000000000000000, 2.00000000000000000000, 4.00000000000000000000, 4.00000000000000000000, 2.00000000000000000000, 0.00000000000000000000, 0.00000000000000000000, 4.00000000000000000000, 4.00000000000000000000, 2.00000000000000000000, 2.00000000000000000000, 4.00000000000000000000, 3.00000000000000000000, 4.00000000000000000000, 4.00000000000000000000, 1668.00000000000000000000, 1686.00000000000000000000, 0.00000000000000000000
2.00000000000000000000, 0.00000000000000000000, 4060.51272122034110000000, 4761.53834510367140000000, 4218.46143530671000000000, 4649.74347604254040000000, 4313.33322785858670000000, 4835.89731764433150000000, 4276.41015183839680000000, 4297.94861285017400000000, 4491.79476195617190000000, 4855.89731715526800000000, 4492.82040295673230000000, 4219.48707630727040000000, 4541.02552998309150000000, 4298.46143335045510000000, 360.00000000000000000000, 3.00000000000000000000, 4.00000000000000000000, 2.00000000000000000000, 4.00000000000000000000, 4.00000000000000000000, 2.00000000000000000000, 0.00000000000000000000, 0.00000000000000000000, 4.00000000000000000000, 4.00000000000000000000, 2.00000000000000000000, 2.00000000000000000000, 4.00000000000000000000, 3.00000000000000000000, 4.00000000000000000000, 4.00000000000000000000, 1667.00000000000000000000, 1687.00000000000000000000, 0.00000000000000000000
3.00000000000000000000, 0.00000000000000000000, 4062.05118272118260000000, 4752.30757609862390000000, 4222.56399930895260000000, 4641.53834803805330000000, 4312.30758685802630000000, 4837.94859964545320000000, 4279.48707484007900000000, 4296.92297184961350000000, 4490.76912095561060000000, 4859.99988115751150000000, 4497.94860795953720000000, 4218.46143530671000000000, 4547.69219648673700000000, 4301.02553585185710000000, 440.00000000000000000000, 3.00000000000000000000, 4.00000000000000000000, 2.00000000000000000000, 4.00000000000000000000, 4.00000000000000000000, 2.00000000000000000000, 0.00000000000000000000, 0.00000000000000000000, 4.00000000000000000000, 4.00000000000000000000, 2.00000000000000000000, 2.00000000000000000000, 4.00000000000000000000, 3.00000000000000000000, 4.00000000000000000000, 4.00000000000000000000, 1667.00000000000000000000, 1688.00000000000000000000, 0.00000000000000000000
4.00000000000000000000, 0.00000000000000000000, 4062.05118272118260000000, 4748.20501209638040000000, 4224.61528131007440000000, 4632.82039953328600000000, 4309.74348435662340000000, 4836.92295864489280000000, 4280.51271584064030000000, 4296.92297184961350000000, 4501.02553096121940000000, 4861.53834265835210000000, 4497.94860795953720000000, 4218.97425580699020000000, 4544.10245298477460000000, 4296.41015134933330000000, 525.00000000000000000000, 3.00000000000000000000, 4.00000000000000000000, 2.00000000000000000000, 4.00000000000000000000, 4.00000000000000000000, 2.00000000000000000000, 0.00000000000000000000, 0.00000000000000000000, 4.00000000000000000000, 4.00000000000000000000, 2.00000000000000000000, 2.00000000000000000000, 4.00000000000000000000, 3.00000000000000000000, 4.00000000000000000000, 4.00000000000000000000, 1667.00000000000000000000, 1688.00000000000000000000, 0.00000000000000000000
5.00000000000000000000, 0.00000000000000000000, 4062.05118272118260000000, 4750.76911459778240000000, 4225.12810181035550000000, 4640.51270703749290000000, 4318.97425336167090000000, 4836.92295864489280000000, 4277.43579283895720000000, 4296.41015134933330000000, 4510.76912046654710000000, 4861.53834265835210000000, 4496.41014645869560000000, 4218.97425580699020000000, 4536.92296598084890000000, 4296.41015134933330000000, 202.00000000000000000000, 3.00000000000000000000, 4.00000000000000000000, 2.00000000000000000000, 4.00000000000000000000, 4.00000000000000000000, 2.00000000000000000000, 0.00000000000000000000, 0.00000000000000000000, 4.00000000000000000000, 4.00000000000000000000, 2.00000000000000000000, 2.00000000000000000000, 4.00000000000000000000, 3.00000000000000000000, 4.00000000000000000000, 4.00000000000000000000, 1667.00000000000000000000, 1689.00000000000000000000, 0.00000000000000000000
6.00000000000000000000, 0.00000000000000000000, 4055.89733671781730000000, 4752.30757609862390000000, 4225.12810181035550000000, 4641.53834803805330000000, 4328.20502236671840000000, 4839.48706114629480000000, 4276.41015183839680000000, 4296.41015134933330000000, 4500.51271046093920000000, 4855.89731715526800000000, 4490.25630045533030000000, 4215.38451230502690000000, 4525.12809447439850000000, 4296.92297184961350000000, 0.00000000000000000000, 3.00000000000000000000, 4.00000000000000000000, 2.00000000000000000000, 4.00000000000000000000, 4.00000000000000000000, 2.00000000000000000000, 0.00000000000000000000, 0.00000000000000000000, 4.00000000000000000000, 4.00000000000000000000, 2.00000000000000000000, 2.00000000000000000000, 4.00000000000000000000, 3.00000000000000000000, 4.00000000000000000000, 4.00000000000000000000, 1666.00000000000000000000, 1688.00000000000000000000, 0.00000000000000000000
7.00000000000000000000, 0.00000000000000000000, 4046.66656771276980000000, 4747.69219159610020000000, 4221.02553780811190000000, 4630.25629703188410000000, 4311.28194585746500000000, 4840.51270214685520000000, 4279.99989534035920000000, 4297.43579234989370000000, 4481.02553145028290000000, 4844.61526614909870000000, 4482.05117245084420000000, 4211.28194830278330000000, 4509.23065896570640000000, 4287.17938234428580000000, 0.00000000000000000000, 3.00000000000000000000, 4.00000000000000000000, 2.00000000000000000000, 4.00000000000000000000, 4.00000000000000000000, 2.00000000000000000000, 0.00000000000000000000, 0.00000000000000000000, 4.00000000000000000000, 4.00000000000000000000, 2.00000000000000000000, 2.00000000000000000000, 4.00000000000000000000, 3.00000000000000000000, 4.00000000000000000000, 4.00000000000000000000, 1666.00000000000000000000, 1689.00000000000000000000, 0.00000000000000000000
8.00000000000000000000, 0.00000000000000000000, 4046.15374721248960000000, 4745.12808909469820000000, 4217.94861480642880000000, 4625.64091252936030000000, 4293.33322834765020000000, 4833.84603564320970000000, 4280.51271584064030000000, 4297.94861285017400000000, 4477.43578794832050000000, 4831.79475364208790000000, 4481.53835195056310000000, 4210.76912780250310000000, 4503.07681296234110000000, 4276.92297233867700000000, 446.00000000000000000000, 3.00000000000000000000, 4.00000000000000000000, 2.00000000000000000000, 4.00000000000000000000, 4.00000000000000000000, 2.00000000000000000000, 0.00000000000000000000, 0.00000000000000000000, 4.00000000000000000000, 4.00000000000000000000, 2.00000000000000000000, 2.00000000000000000000, 4.00000000000000000000, 3.00000000000000000000, 4.00000000000000000000, 4.00000000000000000000, 1667.00000000000000000000, 1688.00000000000000000000, 0.00000000000000000000
9.00000000000000000000, 0.00000000000000000000, 4049.23067021417180000000, 4748.20501209638040000000, 4217.43579430614860000000, 4630.76911753216520000000, 4305.64092035438080000000, 4831.28193314180770000000, 4278.46143383951860000000, 4296.92297184961350000000, 4481.53835195056310000000, 4825.64090763872350000000, 4481.53835195056310000000, 4209.74348680194270000000, 4518.97424847103410000000, 4275.89733133811660000000, 460.00000000000000000000, 3.00000000000000000000, 4.00000000000000000000, 2.00000000000000000000, 4.00000000000000000000, 4.00000000000000000000, 2.00000000000000000000, 0.00000000000000000000, 0.00000000000000000000, 4.00000000000000000000, 4.00000000000000000000, 2.00000000000000000000, 2.00000000000000000000, 4.00000000000000000000, 3.00000000000000000000, 4.00000000000000000000, 4.00000000000000000000, 1666.00000000000000000000, 1690.00000000000000000000, 0.00000000000000000000
10.00000000000000000000, 0.00000000000000000000, 4048.20502921361140000000, 4751.79475559834280000000, 4216.92297380586840000000, 4638.46142503637110000000, 4317.43579186083020000000, 4837.94859964545320000000, 4279.48707484007900000000, 4296.41015134933330000000, 4479.99989044972240000000, 4826.66654863928400000000, 4479.99989044972240000000, 4207.69220480082090000000, 4524.10245347383810000000, 4277.43579283895720000000, 445.00000000000000000000, 3.00000000000000000000, 4.00000000000000000000, 2.00000000000000000000, 4.00000000000000000000, 4.00000000000000000000, 2.00000000000000000000, 0.00000000000000000000, 0.00000000000000000000, 4.00000000000000000000, 4.00000000000000000000, 2.00000000000000000000, 2.00000000000000000000, 4.00000000000000000000, 3.00000000000000000000, 4.00000000000000000000, 4.00000000000000000000, 1667.00000000000000000000, 1688.00000000000000000000, 0.00000000000000000000
11.00000000000000000000, 0.00000000000000000000, 4050.76913171501340000000, 4756.41014010086660000000, 4218.97425580699020000000, 4640.51270703749290000000, 4310.76912535718470000000, 4838.46142014573340000000, 4281.02553634092060000000, 4296.41015134933330000000, 4478.46142894888090000000, 4829.74347164096620000000, 4485.64091595280660000000, 4212.30758930334470000000, 4515.89732546935100000000, 4278.46143383951860000000, 333.00000000000000000000, 3.00000000000000000000, 4.00000000000000000000, 2.00000000000000000000, 4.00000000000000000000, 4.00000000000000000000, 2.00000000000000000000, 0.00000000000000000000, 0.00000000000000000000, 4.00000000000000000000, 4.00000000000000000000, 2.00000000000000000000, 2.00000000000000000000, 4.00000000000000000000, 3.00000000000000000000, 4.00000000000000000000, 4.00000000000000000000, 1665.00000000000000000000, 1688.00000000000000000000, 0.00000000000000000000
12.00000000000000000000, 0.00000000000000000000, 4058.97425971950000000000, 4762.05116560395160000000, 4223.58964030951390000000, 4637.43578403580980000000, 4314.87168935942830000000, 4831.28193314180770000000, 4281.53835684120080000000, 4297.94861285017400000000, 4478.97424944916110000000, 4829.74347164096620000000, 4490.76912095561060000000, 4216.92297380586840000000, 4517.43578697019260000000, 4281.53835684120080000000, 250.00000000000000000000, 3.00000000000000000000, 4.00000000000000000000, 2.00000000000000000000, 4.00000000000000000000, 4.00000000000000000000, 2.00000000000000000000, 0.00000000000000000000, 0.00000000000000000000, 4.00000000000000000000, 4.00000000000000000000, 2.00000000000000000000, 2.00000000000000000000, 4.00000000000000000000, 3.00000000000000000000, 4.00000000000000000000, 4.00000000000000000000, 1667.00000000000000000000, 1688.00000000000000000000, 0.00000000000000000000
13.00000000000000000000, 0.00000000000000000000, 4058.97425971950000000000, 4755.89731960058630000000, 4221.53835830839220000000, 4634.87168153440780000000, 4318.97425336167090000000, 4829.74347164096620000000, 4280.51271584064030000000, 4298.46143335045510000000, 4475.38450594719870000000, 4826.66654863928400000000, 4486.15373645308680000000, 4209.74348680194270000000, 4517.43578697019260000000, 4280.51271584064030000000, 182.00000000000000000000, 3.00000000000000000000, 4.00000000000000000000, 2.00000000000000000000, 4.00000000000000000000, 4.00000000000000000000, 2.00000000000000000000, 0.00000000000000000000, 0.00000000000000000000, 4.00000000000000000000, 4.00000000000000000000, 2.00000000000000000000, 2.00000000000000000000, 4.00000000000000000000, 3.00000000000000000000, 4.00000000000000000000, 4.00000000000000000000, 1667.00000000000000000000, 1687.00000000000000000000, 0.00000000000000000000
14.00000000000000000000, 0.00000000000000000000, 4049.74349071445250000000, 4747.17937109581910000000, 4216.92297380586840000000, 4632.30757903300580000000, 4305.12809985409970000000, 4832.82039464264930000000, 4280.51271584064030000000, 4297.43579234989370000000, 4475.38450594719870000000, 4828.71783064040570000000, 4483.07681345140460000000, 4205.12810229941900000000, 4511.79476146710840000000, 4276.41015183839680000000, 445.00000000000000000000, 3.00000000000000000000, 4.00000000000000000000, 2.00000000000000000000, 4.00000000000000000000, 4.00000000000000000000, 2.00000000000000000000, 0.00000000000000000000, 0.00000000000000000000, 4.00000000000000000000, 4.00000000000000000000, 2.00000000000000000000, 2.00000000000000000000, 4.00000000000000000000, 3.00000000000000000000, 4.00000000000000000000, 4.00000000000000000000, 1667.00000000000000000000, 1688.00000000000000000000, 0.00000000000000000000
15.00000000000000000000, 0.00000000000000000000, 4050.25631121473270000000, 4752.30757609862390000000, 4217.94861480642880000000, 4631.79475853272560000000, 4298.46143335045510000000, 4835.38449714405120000000, 4281.53835684120080000000, 4296.41015134933330000000, 4479.48706994944220000000, 4833.33321514292950000000, 4489.23065945476990000000, 4213.33323030390510000000, 4517.94860747047280000000, 4279.99989534035920000000, 333.00000000000000000000, 3.00000000000000000000, 4.00000000000000000000, 2.00000000000000000000, 4.00000000000000000000, 4.00000000000000000000, 2.00000000000000000000, 0.00000000000000000000, 0.00000000000000000000, 4.00000000000000000000, 4.00000000000000000000, 2.00000000000000000000, 2.00000000000000000000, 4.00000000000000000000, 3.00000000000000000000, 4.00000000000000000000, 4.00000000000000000000, 1668.00000000000000000000, 1687.00000000000000000000, 0.00000000000000000000
16.00000000000000000000, 0.00000000000000000000, 4062.56400322146280000000, 4755.89731960058630000000, 4223.07681980923370000000, 4634.87168153440780000000, 4310.76912535718470000000, 4837.43577914517300000000, 4282.05117734148100000000, 4296.92297184961350000000, 4480.51271095000270000000, 4835.89731764433150000000, 4489.74347995505010000000, 4218.97425580699020000000, 4528.71783797636180000000, 4280.51271584064030000000, 0.00000000000000000000, 3.00000000000000000000, 4.00000000000000000000, 2.00000000000000000000, 4.00000000000000000000, 4.00000000000000000000, 2.00000000000000000000, 0.00000000000000000000, 0.00000000000000000000, 4.00000000000000000000, 4.00000000000000000000, 2.00000000000000000000, 2.00000000000000000000, 4.00000000000000000000, 3.00000000000000000000, 4.00000000000000000000, 4.00000000000000000000, 1667.00000000000000000000, 1688.00000000000000000000, 0.00000000000000000000
17.00000000000000000000, 0.00000000000000000000, 4067.69220822426720000000, 4749.23065309694080000000, 4221.02553780811190000000, 4633.33322003356720000000, 4317.43579186083020000000, 4836.41013814461170000000, 4279.48707484007900000000, 4297.94861285017400000000, 4480.51271095000270000000, 4838.46142014573340000000, 4487.69219795392840000000, 4212.30758930334470000000, 4521.53835097243610000000, 4281.02553634092060000000, 0.00000000000000000000, 3.00000000000000000000, 4.00000000000000000000, 2.00000000000000000000, 4.00000000000000000000, 4.00000000000000000000, 2.00000000000000000000, 0.00000000000000000000, 0.00000000000000000000, 4.00000000000000000000, 4.00000000000000000000, 2.00000000000000000000, 2.00000000000000000000, 4.00000000000000000000, 3.00000000000000000000, 4.00000000000000000000, 4.00000000000000000000, 1668.00000000000000000000, 1688.00000000000000000000, 0.00000000000000000000
18.00000000000000000000, 0.00000000000000000000, 4063.58964422202370000000, 4747.69219159610020000000, 4218.46143530671000000000, 4627.69219453048210000000, 4307.17938185522140000000, 4831.79475364208790000000, 4276.92297233867700000000, 4296.41015134933330000000, 4481.02553145028290000000, 4839.99988164657500000000, 4489.23065945476990000000, 4209.74348680194270000000, 4512.30758196738860000000, 4288.71784384512650000000, 0.00000000000000000000, 3.00000000000000000000, 4.00000000000000000000, 2.00000000000000000000, 4.00000000000000000000, 4.00000000000000000000, 2.00000000000000000000, 0.00000000000000000000, 0.00000000000000000000, 4.00000000000000000000, 4.00000000000000000000, 2.00000000000000000000, 2.00000000000000000000, 4.00000000000000000000, 3.00000000000000000000, 4.00000000000000000000, 4.00000000000000000000, 1667.00000000000000000000, 1689.00000000000000000000, 0.00000000000000000000
19.00000000000000000000, 0.00000000000000000000, 4061.02554172062170000000, 4748.20501209638040000000, 4220.51271730783080000000, 4621.53834852711770000000, 4296.41015134933330000000, 4832.30757414236900000000, 4278.97425433979880000000, 4295.38451034877200000000, 4481.53835195056310000000, 4837.43577914517300000000, 4489.23065945476990000000, 4217.43579430614860000000, 4521.02553047215590000000, 4291.79476684680960000000, 0.00000000000000000000, 3.00000000000000000000, 4.00000000000000000000, 2.00000000000000000000, 4.00000000000000000000, 4.00000000000000000000, 2.00000000000000000000, 0.00000000000000000000, 0.00000000000000000000, 4.00000000000000000000, 4.00000000000000000000, 2.00000000000000000000, 2.00000000000000000000, 4.00000000000000000000, 3.00000000000000000000, 4.00000000000000000000, 4.00000000000000000000, 1668.00000000000000000000, 1688.00000000000000000000, 0.00000000000000000000
20.00000000000000000000, 0.00000000000000000000, 4059.99990072006090000000, 4743.58962759385670000000, 4220.51271730783080000000, 4614.35886152319110000000, 4295.38451034877200000000, 4834.87167664377100000000, 4282.05117734148100000000, 4296.41015134933330000000, 4479.48706994944220000000, 4832.30757414236900000000, 4487.17937745364820000000, 4217.94861480642880000000, 4525.12809447439850000000, 4282.56399784176210000000, 0.00000000000000000000, 3.00000000000000000000, 4.00000000000000000000, 2.00000000000000000000, 4.00000000000000000000, 4.00000000000000000000, 2.00000000000000000000, 0.00000000000000000000, 0.00000000000000000000, 4.00000000000000000000, 4.00000000000000000000, 2.00000000000000000000, 2.00000000000000000000, 4.00000000000000000000, 3.00000000000000000000, 4.00000000000000000000, 4.00000000000000000000, 1666.00000000000000000000, 1690.00000000000000000000, 0.00000000000000000000
21.00000000000000000000, 0.00000000000000000000, 4055.89733671781730000000, 4739.48706359161320000000, 4217.94861480642880000000, 4613.33322052263070000000, 4304.61527935381950000000, 4833.84603564320970000000, 4279.99989534035920000000, 4297.94861285017400000000, 4473.33322394607690000000, 4829.74347164096620000000, 4489.23065945476990000000, 4214.35887130446640000000, 4512.30758196738860000000, 4279.48707484007900000000, 0.00000000000000000000, 3.00000000000000000000, 4.00000000000000000000, 2.00000000000000000000, 4.00000000000000000000, 4.00000000000000000000, 2.00000000000000000000, 0.00000000000000000000, 0.00000000000000000000, 4.00000000000000000000, 4.00000000000000000000, 2.00000000000000000000, 2.00000000000000000000, 4.00000000000000000000, 3.00000000000000000000, 4.00000000000000000000, 4.00000000000000000000, 1667.00000000000000000000, 1689.00000000000000000000, 0.00000000000000000000
22.00000000000000000000, 0.00000000000000000000, 4053.33323421641530000000, 4738.46142259105270000000, 4218.46143530671000000000, 4618.46142552543460000000, 4311.79476635774520000000, 4835.38449714405120000000, 4275.38451083783550000000, 4296.92297184961350000000, 4471.79476244523540000000, 4822.56398463704040000000, 4487.69219795392840000000, 4215.38451230502690000000, 4498.46142845981740000000, 4283.07681834204230000000, 0.00000000000000000000, 3.00000000000000000000, 4.00000000000000000000, 2.00000000000000000000, 4.00000000000000000000, 4.00000000000000000000, 2.00000000000000000000, 0.00000000000000000000, 0.00000000000000000000, 4.00000000000000000000, 4.00000000000000000000, 2.00000000000000000000, 2.00000000000000000000, 4.00000000000000000000, 3.00000000000000000000, 4.00000000000000000000, 4.00000000000000000000, 1665.00000000000000000000, 1689.00000000000000000000, 0.00000000000000000000
23.00000000000000000000, 0.00000000000000000000, 4049.74349071445250000000, 4734.87167908908940000000, 4218.97425580699020000000, 4617.94860502515440000000, 4309.23066385634320000000, 4838.46142014573340000000, 4275.38451083783550000000, 4295.89733084905220000000, 4472.30758294551560000000, 4810.25629263031080000000, 4476.92296744803930000000, 4211.79476880306450000000, 4498.46142845981740000000, 4273.84604933699480000000, 0.00000000000000000000, 3.00000000000000000000, 4.00000000000000000000, 2.00000000000000000000, 4.00000000000000000000, 4.00000000000000000000, 2.00000000000000000000, 0.00000000000000000000, 0.00000000000000000000, 4.00000000000000000000, 4.00000000000000000000, 2.00000000000000000000, 2.00000000000000000000, 4.00000000000000000000, 3.00000000000000000000, 4.00000000000000000000, 4.00000000000000000000, 1666.00000000000000000000, 1689.00000000000000000000, 0.00000000000000000000
24.00000000000000000000, 0.00000000000000000000, 4042.05118321024610000000, 4730.76911508684590000000, 4213.33323030390510000000, 4615.89732302403260000000, 4304.61527935381950000000, 4836.92295864489280000000, 4276.92297233867700000000, 4297.43579234989370000000, 4472.30758294551560000000, 4807.17936962862860000000, 4472.30758294551560000000, 4205.12810229941900000000, 4498.46142845981740000000, 4263.58963933138600000000, 0.00000000000000000000, 3.00000000000000000000, 4.00000000000000000000, 2.00000000000000000000, 4.00000000000000000000, 4.00000000000000000000, 2.00000000000000000000, 0.00000000000000000000, 0.00000000000000000000, 4.00000000000000000000, 4.00000000000000000000, 2.00000000000000000000, 2.00000000000000000000, 4.00000000000000000000, 3.00000000000000000000, 4.00000000000000000000, 4.00000000000000000000, 1665.00000000000000000000, 1688.00000000000000000000, 0.00000000000000000000
25.00000000000000000000, 0.00000000000000000000, 4039.99990120912430000000, 4738.97424309133290000000, 4211.28194830278330000000, 4621.53834852711770000000, 4311.28194585746500000000, 4832.30757414236900000000, 4277.43579283895720000000, 4297.94861285017400000000, 4473.33322394607690000000, 4811.79475413115230000000, 4477.43578794832050000000, 4205.64092279969920000000, 4492.82040295673230000000, 4264.61528033194740000000, 0.00000000000000000000, 3.00000000000000000000, 4.00000000000000000000, 2.00000000000000000000, 4.00000000000000000000, 4.00000000000000000000, 2.00000000000000000000, 0.00000000000000000000, 0.00000000000000000000, 4.00000000000000000000, 4.00000000000000000000, 2.00000000000000000000, 2.00000000000000000000, 4.00000000000000000000, 3.00000000000000000000, 4.00000000000000000000, 4.00000000000000000000, 1665.00000000000000000000, 1690.00000000000000000000, 0.00000000000000000000
26.00000000000000000000, 0.00000000000000000000, 4044.10246521136790000000, 4746.15373009525870000000, 4213.33323030390510000000, 4629.23065603132360000000, 4315.89733035998870000000, 4829.23065114068590000000, 4278.97425433979880000000, 4296.92297184961350000000, 4472.82040344579670000000, 4812.82039513171280000000, 4475.89732644747890000000, 4211.79476880306450000000, 4498.97424896009760000000, 4265.64092133250780000000, 0.00000000000000000000, 3.00000000000000000000, 4.00000000000000000000, 2.00000000000000000000, 4.00000000000000000000, 4.00000000000000000000, 2.00000000000000000000, 0.00000000000000000000, 0.00000000000000000000, 4.00000000000000000000, 4.00000000000000000000, 2.00000000000000000000, 2.00000000000000000000, 4.00000000000000000000, 3.00000000000000000000, 4.00000000000000000000, 4.00000000000000000000, 1666.00000000000000000000, 1688.00000000000000000000, 0.00000000000000000000
27.00000000000000000000, 0.00000000000000000000, 4044.10246521136790000000, 4743.07680709357650000000, 4213.84605080418620000000, 4630.76911753216520000000, 4302.05117685241750000000, 4826.15372813900380000000, 4279.48707484007900000000, 4298.46143335045510000000, 4469.23065994383340000000, 4809.74347213003060000000, 4477.94860844860070000000, 4211.28194830278330000000, 4507.69219746486490000000, 4263.58963933138600000000, 0.00000000000000000000, 3.00000000000000000000, 4.00000000000000000000, 2.00000000000000000000, 4.00000000000000000000, 4.00000000000000000000, 2.00000000000000000000, 0.00000000000000000000, 0.00000000000000000000, 4.00000000000000000000, 4.00000000000000000000, 2.00000000000000000000, 2.00000000000000000000, 4.00000000000000000000, 3.00000000000000000000, 4.00000000000000000000, 4.00000000000000000000, 1666.00000000000000000000, 1688.00000000000000000000, 0.00000000000000000000
28.00000000000000000000, 0.00000000000000000000, 4045.64092671220900000000, 4745.12808909469820000000, 4213.84605080418620000000, 4631.28193803244540000000, 4296.92297184961350000000, 4826.66654863928400000000, 4281.02553634092060000000, 4297.94861285017400000000, 4472.30758294551560000000, 4814.87167713283450000000, 4483.58963395168480000000, 4207.17938430054070000000, 4505.12809496346290000000, 4265.12810083222760000000, 0.00000000000000000000, 3.00000000000000000000, 4.00000000000000000000, 2.00000000000000000000, 4.00000000000000000000, 4.00000000000000000000, 2.00000000000000000000, 0.00000000000000000000, 0.00000000000000000000, 4.00000000000000000000, 4.00000000000000000000, 2.00000000000000000000, 2.00000000000000000000, 4.00000000000000000000, 3.00000000000000000000, 4.00000000000000000000, 4.00000000000000000000, 1667.00000000000000000000, 1687.00000000000000000000, 0.00000000000000000000
29.00000000000000000000, 0.00000000000000000000, 4049.23067021417180000000, 4753.33321709918440000000, 4215.38451230502690000000, 4633.33322003356720000000, 4312.82040735830650000000, 4835.38449714405120000000, 4282.05117734148100000000, 4296.41015134933330000000, 4478.46142894888090000000, 4823.07680513732160000000, 4481.53835195056310000000, 4205.12810229941900000000, 4507.69219746486490000000, 4267.69220333362950000000, 0.00000000000000000000, 3.00000000000000000000, 4.00000000000000000000, 2.00000000000000000000, 4.00000000000000000000, 4.00000000000000000000, 2.00000000000000000000, 0.00000000000000000000, 0.00000000000000000000, 4.00000000000000000000, 4.00000000000000000000, 2.00000000000000000000, 2.00000000000000000000, 4.00000000000000000000, 3.00000000000000000000, 4.00000000000000000000, 4.00000000000000000000, 1667.00000000000000000000, 1688.00000000000000000000, 0.00000000000000000000
30.00000000000000000000, 0.00000000000000000000, 4048.20502921361140000000, 4752.82039659890420000000, 4213.84605080418620000000, 4631.79475853272560000000, 4316.41015086026890000000, 4837.94859964545320000000, 4278.46143383951860000000, 4297.43579234989370000000, 4481.53835195056310000000, 4826.15372813900380000000, 4478.97424944916110000000, 4206.15374329997940000000, 4519.99988947159450000000, 4269.74348533475130000000, 0.00000000000000000000, 3.00000000000000000000, 4.00000000000000000000, 2.00000000000000000000, 4.00000000000000000000, 4.00000000000000000000, 2.00000000000000000000, 0.00000000000000000000, 0.00000000000000000000, 4.00000000000000000000, 4.00000000000000000000, 2.00000000000000000000, 2.00000000000000000000, 4.00000000000000000000, 3.00000000000000000000, 4.00000000000000000000, 4.00000000000000000000, 1668.00000000000000000000, 1686.00000000000000000000, 0.00000000000000000000
31.00000000000000000000, 0.00000000000000000000, 4047.17938821305050000000, 4749.74347359722200000000, 4212.30758930334470000000, 4630.25629703188410000000, 4304.61527935381950000000, 4830.76911264152750000000, 4278.97425433979880000000, 4298.46143335045510000000, 4481.02553145028290000000, 4827.17936913956420000000, 4483.07681345140460000000, 4209.23066630166250000000, 4517.43578697019260000000, 4272.82040833643350000000, 0.00000000000000000000, 3.00000000000000000000, 4.00000000000000000000, 2.00000000000000000000, 4.00000000000000000000, 4.00000000000000000000, 2.00000000000000000000, 0.00000000000000000000, 0.00000000000000000000, 4.00000000000000000000, 4.00000000000000000000, 2.00000000000000000000, 2.00000000000000000000, 4.00000000000000000000, 3.00000000000000000000, 4.00000000000000000000, 4.00000000000000000000, 1667.00000000000000000000, 1687.00000000000000000000, 0.00000000000000000000
32.00000000000000000000, 0.00000000000000000000, 4050.25631121473270000000, 4753.33321709918440000000, 4213.84605080418620000000, 4629.23065603132360000000, 4302.56399735269770000000, 4829.74347164096620000000, 4283.07681834204230000000, 4296.41015134933330000000, 4477.94860844860070000000, 4828.71783064040570000000, 4487.69219795392840000000, 4211.28194830278330000000, 4507.17937696458470000000, 4272.82040833643350000000, 0.00000000000000000000, 3.00000000000000000000, 4.00000000000000000000, 2.00000000000000000000, 4.00000000000000000000, 4.00000000000000000000, 2.00000000000000000000, 0.00000000000000000000, 0.00000000000000000000, 4.00000000000000000000, 4.00000000000000000000, 2.00000000000000000000, 2.00000000000000000000, 4.00000000000000000000, 3.00000000000000000000, 4.00000000000000000000, 4.00000000000000000000, 1669.00000000000000000000, 1686.00000000000000000000, 0.00000000000000000000
33.00000000000000000000, 0.00000000000000000000, 4048.71784971389160000000, 4748.20501209638040000000, 4215.89733280530710000000, 4621.53834852711770000000, 4304.61527935381950000000, 4834.87167664377100000000, 4279.99989534035920000000, 4296.41015134933330000000, 4478.97424944916110000000, 4830.25629214124730000000, 4489.74347995505010000000, 4210.25630730222290000000, 4509.74347946598660000000, 4271.79476733587310000000, 0.00000000000000000000, 3.00000000000000000000, 4.00000000000000000000, 2.00000000000000000000, 4.00000000000000000000, 4.00000000000000000000, 2.00000000000000000000, 0.00000000000000000000, 0.00000000000000000000, 4.00000000000000000000, 4.00000000000000000000, 2.00000000000000000000, 2.00000000000000000000, 4.00000000000000000000, 3.00000000000000000000, 4.00000000000000000000, 4.00000000000000000000, 1668.00000000000000000000, 1686.00000000000000000000, 0.00000000000000000000
34.00000000000000000000, 0.00000000000000000000, 4043.07682421080700000000, 4737.43578159049140000000, 4214.87169180474670000000, 4614.87168202347220000000, 4304.10245885353920000000, 4834.35885614348990000000, 4276.92297233867700000000, 4297.43579234989370000000, 4484.10245445196600000000, 4830.25629214124730000000, 4489.74347995505010000000, 4207.69220480082090000000, 4514.87168446879060000000, 4271.28194683559290000000, 0.00000000000000000000, 3.00000000000000000000, 4.00000000000000000000, 2.00000000000000000000, 4.00000000000000000000, 4.00000000000000000000, 2.00000000000000000000, 0.00000000000000000000, 0.00000000000000000000, 4.00000000000000000000, 4.00000000000000000000, 2.00000000000000000000, 2.00000000000000000000, 4.00000000000000000000, 3.00000000000000000000, 4.00000000000000000000, 4.00000000000000000000, 1669.00000000000000000000, 1687.00000000000000000000, 0.00000000000000000000
35.00000000000000000000, 0.00000000000000000000, 4044.10246521136790000000, 4734.87167908908940000000, 4213.33323030390510000000, 4617.43578452487420000000, 4303.07681785297880000000, 4832.82039464264930000000, 4278.46143383951860000000, 4296.41015134933330000000, 4485.64091595280660000000, 4826.66654863928400000000, 4483.58963395168480000000, 4207.69220480082090000000, 4514.87168446879060000000, 4270.76912633531170000000, 0.00000000000000000000, 3.00000000000000000000, 4.00000000000000000000, 2.00000000000000000000, 4.00000000000000000000, 4.00000000000000000000, 2.00000000000000000000, 0.00000000000000000000, 0.00000000000000000000, 4.00000000000000000000, 4.00000000000000000000, 2.00000000000000000000, 2.00000000000000000000, 4.00000000000000000000, 3.00000000000000000000, 4.00000000000000000000, 4.00000000000000000000, 1668.00000000000000000000, 1685.00000000000000000000, 0.00000000000000000000
36.00000000000000000000, 0.00000000000000000000, 4046.15374721248960000000, 4733.84603808852900000000, 4208.20502530110120000000, 4616.41014352431280000000, 4305.12809985409970000000, 4834.35885614348990000000, 4278.97425433979880000000, 4294.87168984849180000000, 4481.02553145028290000000, 4821.53834363648000000000, 4478.46142894888090000000, 4207.69220480082090000000, 4513.84604346823020000000, 4269.23066483447110000000, 0.00000000000000000000, 3.00000000000000000000, 4.00000000000000000000, 2.00000000000000000000, 4.00000000000000000000, 4.00000000000000000000, 2.00000000000000000000, 0.00000000000000000000, 0.00000000000000000000, 4.00000000000000000000, 4.00000000000000000000, 2.00000000000000000000, 2.00000000000000000000, 4.00000000000000000000, 3.00000000000000000000, 4.00000000000000000000, 4.00000000000000000000, 1669.00000000000000000000, 1687.00000000000000000000, 0.00000000000000000000
37.00000000000000000000, 0.00000000000000000000, 4039.48708070884410000000, 4726.66655108460240000000, 4203.58964079857740000000, 4609.74347702066730000000, 4304.10245885353920000000, 4830.25629214124730000000, 4280.51271584064030000000, 4295.38451034877200000000, 4472.30758294551560000000, 4816.92295913395630000000, 4477.94860844860070000000, 4204.61528179913880000000, 4506.66655646430350000000, 4266.15374183278800000000, 0.00000000000000000000, 3.00000000000000000000, 4.00000000000000000000, 2.00000000000000000000, 4.00000000000000000000, 4.00000000000000000000, 2.00000000000000000000, 0.00000000000000000000, 0.00000000000000000000, 4.00000000000000000000, 4.00000000000000000000, 2.00000000000000000000, 2.00000000000000000000, 4.00000000000000000000, 3.00000000000000000000, 4.00000000000000000000, 4.00000000000000000000, 1669.00000000000000000000, 1685.00000000000000000000, 0.00000000000000000000
38.00000000000000000000, 0.00000000000000000000, 4029.74349120351600000000, 4722.56398708235970000000, 4203.58964079857740000000, 4610.25629752094850000000, 4294.35886934821160000000, 4827.17936913956420000000, 4283.07681834204230000000, 4297.43579234989370000000, 4466.15373694215120000000, 4808.71783112946920000000, 4474.87168544691850000000, 4204.10246129885760000000, 4490.76912095561060000000, 4262.56399833082560000000, 0.00000000000000000000, 3.00000000000000000000, 4.00000000000000000000, 2.00000000000000000000, 4.00000000000000000000, 4.00000000000000000000, 2.00000000000000000000, 0.00000000000000000000, 0.00000000000000000000, 4.00000000000000000000, 4.00000000000000000000, 2.00000000000000000000, 2.00000000000000000000, 4.00000000000000000000, 3.00000000000000000000, 4.00000000000000000000, 4.00000000000000000000, 1668.00000000000000000000, 1686.00000000000000000000, 0.00000000000000000000
39.00000000000000000000, 0.00000000000000000000, 4032.82041420519860000000, 4734.87167908908940000000, 4207.17938430054070000000, 4617.43578452487420000000, 4292.82040784737000000000, 4828.71783064040570000000, 4281.53835684120080000000, 4297.94861285017400000000, 4466.66655744243140000000, 4806.66654912834750000000, 4474.35886494663740000000, 4206.66656380025960000000, 4489.74347995505010000000, 4265.64092133250780000000, 0.00000000000000000000, 3.00000000000000000000, 4.00000000000000000000, 2.00000000000000000000, 4.00000000000000000000, 4.00000000000000000000, 2.00000000000000000000, 0.00000000000000000000, 0.00000000000000000000, 4.00000000000000000000, 4.00000000000000000000, 2.00000000000000000000, 2.00000000000000000000, 4.00000000000000000000, 3.00000000000000000000, 4.00000000000000000000, 4.00000000000000000000, 1668.00000000000000000000, 1686.00000000000000000000, 0.00000000000000000000
40.00000000000000000000, 0.00000000000000000000, 4044.10246521136790000000, 4749.74347359722200000000, 4208.20502530110120000000, 4622.05116902739790000000, 4307.17938185522140000000, 4830.76911264152750000000, 4279.99989534035920000000, 4295.89733084905220000000, 4471.28194194495520000000, 4812.30757463143250000000, 4481.02553145028290000000, 4207.17938430054070000000, 4507.17937696458470000000, 4273.33322883671460000000, 0.00000000000000000000, 3.00000000000000000000, 4.00000000000000000000, 2.00000000000000000000, 4.00000000000000000000, 4.00000000000000000000, 2.00000000000000000000, 0.00000000000000000000, 0.00000000000000000000, 4.00000000000000000000, 4.00000000000000000000, 2.00000000000000000000, 2.00000000000000000000, 4.00000000000000000000, 3.00000000000000000000, 4.00000000000000000000, 4.00000000000000000000, 1667.00000000000000000000, 1686.00000000000000000000, 0.00000000000000000000
41.00000000000000000000, 0.00000000000000000000, 4047.69220871333070000000, 4750.76911459778240000000, 4206.15374329997940000000, 4624.10245102851970000000, 4314.35886885914720000000, 4830.25629214124730000000, 4281.02553634092060000000, 4294.87168984849180000000, 4470.25630094439480000000, 4814.35885663255430000000, 4484.10245445196600000000, 4207.69220480082090000000, 4518.97424847103410000000, 4276.41015183839680000000, 0.00000000000000000000, 3.00000000000000000000, 4.00000000000000000000, 2.00000000000000000000, 4.00000000000000000000, 4.00000000000000000000, 2.00000000000000000000, 0.00000000000000000000, 0.00000000000000000000, 4.00000000000000000000, 4.00000000000000000000, 2.00000000000000000000, 2.00000000000000000000, 4.00000000000000000000, 3.00000000000000000000, 4.00000000000000000000, 4.00000000000000000000, 1667.00000000000000000000, 1686.00000000000000000000, 0.00000000000000000000
42.00000000000000000000, 0.00000000000000000000, 4047.17938821305050000000, 4751.28193509806260000000, 4204.10246129885760000000, 4627.17937403020190000000, 4307.69220235550260000000, 4829.23065114068590000000, 4283.07681834204230000000, 4296.41015134933330000000, 4464.61527544130970000000, 4813.33321563199300000000, 4483.58963395168480000000, 4208.20502530110120000000, 4521.53835097243610000000, 4278.97425433979880000000, 0.00000000000000000000, 3.00000000000000000000, 4.00000000000000000000, 2.00000000000000000000, 4.00000000000000000000, 4.00000000000000000000, 2.00000000000000000000, 0.00000000000000000000, 0.00000000000000000000, 4.00000000000000000000, 4.00000000000000000000, 2.00000000000000000000, 2.00000000000000000000, 4.00000000000000000000, 3.00000000000000000000, 4.00000000000000000000, 4.00000000000000000000, 1666.00000000000000000000, 1687.00000000000000000000, 0.00000000000000000000
43.00000000000000000000, 0.00000000000000000000, 4051.79477271557430000000, 4762.05116560395160000000, 4207.17938430054070000000, 4633.33322003356720000000, 4305.12809985409970000000, 4829.23065114068590000000, 4283.07681834204230000000, 4296.41015134933330000000, 4469.23065994383340000000, 4814.87167713283450000000, 4485.64091595280660000000, 4208.71784580138140000000, 4516.92296646991240000000, 4279.99989534035920000000, 0.00000000000000000000, 3.00000000000000000000, 4.00000000000000000000, 2.00000000000000000000, 4.00000000000000000000, 4.00000000000000000000, 2.00000000000000000000, 0.00000000000000000000, 0.00000000000000000000, 4.00000000000000000000, 4.00000000000000000000, 2.00000000000000000000, 2.00000000000000000000, 4.00000000000000000000, 3.00000000000000000000, 4.00000000000000000000, 4.00000000000000000000, 1666.00000000000000000000, 1686.00000000000000000000, 0.00000000000000000000
44.00000000000000000000, 0.00000000000000000000, 4053.33323421641530000000, 4764.10244760507340000000, 4213.33323030390510000000, 4636.41014303524930000000, 4303.58963835325900000000, 4829.74347164096620000000, 4279.48707484007900000000, 4296.41015134933330000000, 4478.97424944916110000000, 4818.46142063479780000000, 4483.07681345140460000000, 4208.20502530110120000000, 4511.79476146710840000000, 4278.97425433979880000000, 0.00000000000000000000, 3.00000000000000000000, 4.00000000000000000000, 2.00000000000000000000, 4.00000000000000000000, 4.00000000000000000000, 2.00000000000000000000, 0.00000000000000000000, 0.00000000000000000000, 4.00000000000000000000, 4.00000000000000000000, 2.00000000000000000000, 2.00000000000000000000, 4.00000000000000000000, 3.00000000000000000000, 4.00000000000000000000, 4.00000000000000000000, 1666.00000000000000000000, 1687.00000000000000000000, 0.00000000000000000000
45.00000000000000000000, 0.00000000000000000000, 4046.15374721248960000000, 4751.79475559834280000000, 4212.82040980362490000000, 4628.71783553104340000000, 4295.38451034877200000000, 4829.23065114068590000000, 4277.94861333923840000000, 4297.94861285017400000000, 4473.33322394607690000000, 4821.02552313619980000000, 4478.46142894888090000000, 4208.20502530110120000000, 4519.48706897131430000000, 4277.94861333923840000000, 0.00000000000000000000, 3.00000000000000000000, 4.00000000000000000000, 2.00000000000000000000, 4.00000000000000000000, 4.00000000000000000000, 2.00000000000000000000, 0.00000000000000000000, 0.00000000000000000000, 4.00000000000000000000, 4.00000000000000000000, 2.00000000000000000000, 2.00000000000000000000, 4.00000000000000000000, 3.00000000000000000000, 4.00000000000000000000, 4.00000000000000000000, 1667.00000000000000000000, 1686.00000000000000000000, 0.00000000000000000000
46.00000000000000000000, 0.00000000000000000000, 4039.48708070884410000000, 4747.69219159610020000000, 4209.23066630166250000000, 4618.97424602571480000000, 4285.64092084344430000000, 4828.71783064040570000000, 4281.02553634092060000000, 4297.94861285017400000000, 4459.48707043850570000000, 4819.48706163535830000000, 4484.61527495224620000000, 4208.71784580138140000000, 4509.23065896570640000000, 4274.35886983727510000000, 0.00000000000000000000, 3.00000000000000000000, 4.00000000000000000000, 2.00000000000000000000, 4.00000000000000000000, 4.00000000000000000000, 2.00000000000000000000, 0.00000000000000000000, 0.00000000000000000000, 4.00000000000000000000, 4.00000000000000000000, 2.00000000000000000000, 2.00000000000000000000, 4.00000000000000000000, 3.00000000000000000000, 4.00000000000000000000, 4.00000000000000000000, 1667.00000000000000000000, 1686.00000000000000000000, 0.00000000000000000000
47.00000000000000000000, 0.00000000000000000000, 4039.99990120912430000000, 4746.66655059553890000000, 4210.25630730222290000000, 4616.92296402459400000000, 4277.94861333923840000000, 4829.74347164096620000000, 4280.51271584064030000000, 4296.92297184961350000000, 4464.61527544130970000000, 4815.38449763311470000000, 4489.23065945476990000000, 4206.15374329997940000000, 4482.56399295112440000000, 4266.66656233306910000000, 0.00000000000000000000, 3.00000000000000000000, 4.00000000000000000000, 2.00000000000000000000, 4.00000000000000000000, 4.00000000000000000000, 2.00000000000000000000, 0.00000000000000000000, 0.00000000000000000000, 4.00000000000000000000, 4.00000000000000000000, 2.00000000000000000000, 2.00000000000000000000, 4.00000000000000000000, 3.00000000000000000000, 4.00000000000000000000, 4.00000000000000000000, 1668.00000000000000000000, 1686.00000000000000000000, 0.00000000000000000000
48.00000000000000000000, 0.00000000000000000000, 4042.56400371052680000000, 4734.35885858880920000000, 4213.84605080418620000000, 4611.79475902178910000000, 4275.38451083783550000000, 4827.69218963984530000000, 4277.94861333923840000000, 4296.41015134933330000000, 4478.97424944916110000000, 4818.97424113507800000000, 4482.56399295112440000000, 4205.12810229941900000000, 4502.05117196177980000000, 4269.74348533475130000000, 0.00000000000000000000, 3.00000000000000000000, 4.00000000000000000000, 2.00000000000000000000, 4.00000000000000000000, 4.00000000000000000000, 2.00000000000000000000, 0.00000000000000000000, 0.00000000000000000000, 4.00000000000000000000, 4.00000000000000000000, 2.00000000000000000000, 2.00000000000000000000, 4.00000000000000000000, 3.00000000000000000000, 4.00000000000000000000, 4.00000000000000000000, 1668.00000000000000000000, 1686.00000000000000000000, 0.00000000000000000000
49.00000000000000000000, 0.00000000000000000000, 4044.10246521136790000000, 4732.82039708796760000000, 4213.84605080418620000000, 4607.69219501954650000000, 4270.76912633531170000000, 4829.74347164096620000000, 4278.97425433979880000000, 4296.92297184961350000000, 4483.58963395168480000000, 4828.20501014012550000000, 4485.12809545252640000000, 4208.20502530110120000000, 4544.61527348505480000000, 4280.51271584064030000000, 0.00000000000000000000, 3.00000000000000000000, 4.00000000000000000000, 2.00000000000000000000, 4.00000000000000000000, 4.00000000000000000000, 2.00000000000000000000, 0.00000000000000000000, 0.00000000000000000000, 4.00000000000000000000, 4.00000000000000000000, 2.00000000000000000000, 2.00000000000000000000, 4.00000000000000000000, 3.00000000000000000000, 4.00000000000000000000, 4.00000000000000000000, 1668.00000000000000000000, 1686.00000000000000000000, 0.00000000000000000000
50.00000000000000000000, 0.00000000000000000000, 4047.17938821305050000000, 4744.61526859441710000000, 4215.38451230502690000000, 4615.38450252375240000000, 4267.69220333362950000000, 4837.43577914517300000000, 4279.48707484007900000000, 4298.46143335045510000000, 4484.61527495224620000000, 4835.38449714405120000000, 4491.79476195617190000000, 4210.76912780250310000000, 4544.61527348505480000000, 4282.05117734148100000000, 0.00000000000000000000, 3.00000000000000000000, 4.00000000000000000000, 2.00000000000000000000, 4.00000000000000000000, 4.00000000000000000000, 2.00000000000000000000, 0.00000000000000000000, 0.00000000000000000000, 4.00000000000000000000, 4.00000000000000000000, 2.00000000000000000000, 2.00000000000000000000, 4.00000000000000000000, 3.00000000000000000000, 4.00000000000000000000, 4.00000000000000000000, 1667.00000000000000000000, 1687.00000000000000000000, 0.00000000000000000000
51.00000000000000000000, 0.00000000000000000000, 4049.23067021417180000000, 4748.20501209638040000000, 4216.92297380586840000000, 4625.64091252936030000000, 4268.71784433419090000000, 4835.38449714405120000000, 4275.89733133811660000000, 4297.94861285017400000000, 4490.25630045533030000000, 4837.94859964545320000000, 4490.25630045533030000000, 4211.28194830278330000000, 4519.48706897131430000000, 4280.51271584064030000000, 0.00000000000000000000, 3.00000000000000000000, 4.00000000000000000000, 2.00000000000000000000, 4.00000000000000000000, 4.00000000000000000000, 2.00000000000000000000, 0.00000000000000000000, 0.00000000000000000000, 4.00000000000000000000, 4.00000000000000000000, 2.00000000000000000000, 2.00000000000000000000, 4.00000000000000000000, 3.00000000000000000000, 4.00000000000000000000, 4.00000000000000000000, 1669.00000000000000000000, 1686.00000000000000000000, 0.00000000000000000000
52.00000000000000000000, 0.00000000000000000000, 4050.25631121473270000000, 4746.66655059553890000000, 4216.41015330558820000000, 4628.71783553104340000000, 4268.71784433419090000000, 4828.71783064040570000000, 4276.92297233867700000000, 4295.38451034877200000000, 4490.25630045533030000000, 4835.89731764433150000000, 4490.25630045533030000000, 4212.82040980362490000000, 4511.28194096682730000000, 4283.07681834204230000000, 0.00000000000000000000, 3.00000000000000000000, 4.00000000000000000000, 2.00000000000000000000, 4.00000000000000000000, 4.00000000000000000000, 2.00000000000000000000, 0.00000000000000000000, 0.00000000000000000000, 4.00000000000000000000, 4.00000000000000000000, 2.00000000000000000000, 2.00000000000000000000, 4.00000000000000000000, 3.00000000000000000000, 4.00000000000000000000, 4.00000000000000000000, 1669.00000000000000000000, 1686.00000000000000000000, 0.00000000000000000000
53.00000000000000000000, 0.00000000000000000000, 4052.82041371613510000000, 4749.74347359722200000000, 4217.43579430614860000000, 4629.74347653160380000000, 4266.66656233306910000000, 4829.23065114068590000000, 4279.99989534035920000000, 4295.89733084905220000000, 4482.56399295112440000000, 4829.74347164096620000000, 4488.20501845420860000000, 4212.30758930334470000000, 4515.89732546935100000000, 4283.07681834204230000000, 0.00000000000000000000, 3.00000000000000000000, 4.00000000000000000000, 2.00000000000000000000, 4.00000000000000000000, 4.00000000000000000000, 2.00000000000000000000, 0.00000000000000000000, 0.00000000000000000000, 4.00000000000000000000, 4.00000000000000000000, 2.00000000000000000000, 2.00000000000000000000, 4.00000000000000000000, 3.00000000000000000000, 4.00000000000000000000, 4.00000000000000000000, 1670.00000000000000000000, 1687.00000000000000000000, 0.00000000000000000000
54.00000000000000000000, 0.00000000000000000000, 4052.30759321585450000000, 4750.76911459778240000000, 4218.46143530671000000000, 4630.25629703188410000000, 4261.53835733026430000000, 4832.30757414236900000000, 4278.46143383951860000000, 4297.94861285017400000000, 4474.87168544691850000000, 4821.53834363648000000000, 4479.99989044972240000000, 4209.23066630166250000000, 4517.94860747047280000000, 4277.43579283895720000000, 0.00000000000000000000, 3.00000000000000000000, 4.00000000000000000000, 2.00000000000000000000, 4.00000000000000000000, 4.00000000000000000000, 2.00000000000000000000, 0.00000000000000000000, 0.00000000000000000000, 4.00000000000000000000, 4.00000000000000000000, 2.00000000000000000000, 2.00000000000000000000, 4.00000000000000000000, 3.00000000000000000000, 4.00000000000000000000, 4.00000000000000000000, 1669.00000000000000000000, 1685.00000000000000000000, 0.00000000000000000000
55.00000000000000000000, 0.00000000000000000000, 4046.66656771276980000000, 4747.69219159610020000000, 4214.35887130446640000000, 4630.25629703188410000000, 4255.89733182718010000000, 4830.25629214124730000000, 4276.92297233867700000000, 4296.41015134933330000000, 4471.28194194495520000000, 4814.87167713283450000000, 4477.43578794832050000000, 4208.20502530110120000000, 4510.76912046654710000000, 4267.17938283334930000000, 0.00000000000000000000, 3.00000000000000000000, 4.00000000000000000000, 2.00000000000000000000, 4.00000000000000000000, 4.00000000000000000000, 2.00000000000000000000, 0.00000000000000000000, 0.00000000000000000000, 4.00000000000000000000, 4.00000000000000000000, 2.00000000000000000000, 2.00000000000000000000, 4.00000000000000000000, 3.00000000000000000000, 4.00000000000000000000, 4.00000000000000000000, 1670.00000000000000000000, 1687.00000000000000000000, 0.00000000000000000000
56.00000000000000000000, 0.00000000000000000000, 4047.17938821305050000000, 4753.33321709918440000000, 4212.82040980362490000000, 4631.79475853272560000000, 4258.46143432858210000000, 4828.71783064040570000000, 4276.92297233867700000000, 4295.89733084905220000000, 4472.82040344579670000000, 4814.87167713283450000000, 4487.17937745364820000000, 4208.20502530110120000000, 4499.99988996065800000000, 4264.61528033194740000000, 0.00000000000000000000, 3.00000000000000000000, 4.00000000000000000000, 2.00000000000000000000, 4.00000000000000000000, 4.00000000000000000000, 2.00000000000000000000, 0.00000000000000000000, 0.00000000000000000000, 4.00000000000000000000, 4.00000000000000000000, 2.00000000000000000000, 2.00000000000000000000, 4.00000000000000000000, 3.00000000000000000000, 4.00000000000000000000, 4.00000000000000000000, 1670.00000000000000000000, 1685.00000000000000000000, 0.00000000000000000000
57.00000000000000000000, 0.00000000000000000000, 4054.87169571725640000000, 4763.07680660451210000000, 4217.43579430614860000000, 4632.30757903300580000000, 4262.56399833082560000000, 4830.25629214124730000000, 4279.48707484007900000000, 4297.43579234989370000000, 4475.38450594719870000000, 4821.02552313619980000000, 4491.28194145589170000000, 4209.23066630166250000000, 4508.20501796514510000000, 4270.76912633531170000000, 0.00000000000000000000, 3.00000000000000000000, 4.00000000000000000000, 2.00000000000000000000, 4.00000000000000000000, 4.00000000000000000000, 2.00000000000000000000, 0.00000000000000000000, 0.00000000000000000000, 4.00000000000000000000, 4.00000000000000000000, 2.00000000000000000000, 2.00000000000000000000, 4.00000000000000000000, 3.00000000000000000000, 4.00000000000000000000, 4.00000000000000000000, 1669.00000000000000000000, 1687.00000000000000000000, 0.00000000000000000000
58.00000000000000000000, 0.00000000000000000000, 4054.87169571725640000000, 4762.05116560395160000000, 4219.48707630727040000000, 4632.30757903300580000000, 4262.56399833082560000000, 4830.25629214124730000000, 4281.53835684120080000000, 4296.92297184961350000000, 4474.87168544691850000000, 4821.02552313619980000000, 4483.58963395168480000000, 4210.25630730222290000000, 4522.05117147271630000000, 4274.35886983727510000000, 0.00000000000000000000, 3.00000000000000000000, 4.00000000000000000000, 2.00000000000000000000, 4.00000000000000000000, 4.00000000000000000000, 2.00000000000000000000, 0.00000000000000000000, 0.00000000000000000000, 4.00000000000000000000, 4.00000000000000000000, 2.00000000000000000000, 2.00000000000000000000, 4.00000000000000000000, 3.00000000000000000000, 4.00000000000000000000, 4.00000000000000000000, 1669.00000000000000000000, 1687.00000000000000000000, 0.00000000000000000000
59.00000000000000000000, 0.00000000000000000000, 4049.23067021417180000000, 4752.82039659890420000000, 4214.35887130446640000000, 4631.79475853272560000000, 4264.61528033194740000000, 4828.71783064040570000000, 4281.02553634092060000000, 4296.41015134933330000000, 4470.25630094439480000000, 4812.30757463143250000000, 4477.43578794832050000000, 4209.23066630166250000000, 4518.46142797075390000000, 4270.25630583503150000000, 0.00000000000000000000, 3.00000000000000000000, 4.00000000000000000000, 2.00000000000000000000, 4.00000000000000000000, 4.00000000000000000000, 2.00000000000000000000, 0.00000000000000000000, 0.00000000000000000000, 4.00000000000000000000, 4.00000000000000000000, 2.00000000000000000000, 2.00000000000000000000, 4.00000000000000000000, 3.00000000000000000000, 4.00000000000000000000, 4.00000000000000000000, 1668.00000000000000000000, 1687.00000000000000000000, 0.00000000000000000000
60.00000000000000000000, 0.00000000000000000000, 4051.79477271557430000000, 4749.74347359722200000000, 4211.79476880306450000000, 4627.17937403020190000000, 4262.05117783054540000000, 4828.20501014012550000000, 4277.94861333923840000000, 4296.92297184961350000000, 4471.79476244523540000000, 4810.76911313059100000000, 4481.02553145028290000000, 4207.69220480082090000000, 4513.33322296794900000000, 4269.74348533475130000000, 0.00000000000000000000, 3.00000000000000000000, 4.00000000000000000000, 2.00000000000000000000, 4.00000000000000000000, 4.00000000000000000000, 2.00000000000000000000, 0.00000000000000000000, 0.00000000000000000000, 4.00000000000000000000, 4.00000000000000000000, 2.00000000000000000000, 2.00000000000000000000, 4.00000000000000000000, 3.00000000000000000000, 4.00000000000000000000, 4.00000000000000000000, 1668.00000000000000000000, 1687.00000000000000000000, 0.00000000000000000000
61.00000000000000000000, 0.00000000000000000000, 4054.35887521697620000000, 4753.84603759946460000000, 4214.35887130446640000000, 4621.02552802683660000000, 4251.79476782493660000000, 4830.25629214124730000000, 4277.43579283895720000000, 4296.92297184961350000000, 4477.43578794832050000000, 4818.46142063479780000000, 4486.15373645308680000000, 4209.23066630166250000000, 4521.53835097243610000000, 4271.28194683559290000000, 0.00000000000000000000, 3.00000000000000000000, 4.00000000000000000000, 2.00000000000000000000, 4.00000000000000000000, 4.00000000000000000000, 2.00000000000000000000, 0.00000000000000000000, 0.00000000000000000000, 4.00000000000000000000, 4.00000000000000000000, 2.00000000000000000000, 2.00000000000000000000, 4.00000000000000000000, 3.00000000000000000000, 4.00000000000000000000, 4.00000000000000000000, 1667.00000000000000000000, 1688.00000000000000000000, 0.00000000000000000000
62.00000000000000000000, 0.00000000000000000000, 4044.61528571164810000000, 4751.28193509806260000000, 4213.84605080418620000000, 4618.46142552543460000000, 4252.82040882549790000000, 4830.76911264152750000000, 4277.94861333923840000000, 4297.43579234989370000000, 4477.43578794832050000000, 4822.56398463704040000000, 4487.17937745364820000000, 4208.71784580138140000000, 4515.38450496907080000000, 4268.71784433419090000000, 0.00000000000000000000, 3.00000000000000000000, 4.00000000000000000000, 2.00000000000000000000, 4.00000000000000000000, 4.00000000000000000000, 2.00000000000000000000, 0.00000000000000000000, 0.00000000000000000000, 4.00000000000000000000, 4.00000000000000000000, 2.00000000000000000000, 2.00000000000000000000, 4.00000000000000000000, 3.00000000000000000000, 4.00000000000000000000, 4.00000000000000000000, 1668.00000000000000000000, 1687.00000000000000000000, 0.00000000000000000000
63.00000000000000000000, 0.00000000000000000000, 4037.43579870772240000000, 4738.46142259105270000000, 4209.74348680194270000000, 4616.92296402459400000000, 4257.94861382830190000000, 4829.23065114068590000000, 4277.43579283895720000000, 4297.94861285017400000000, 4478.46142894888090000000, 4819.48706163535830000000, 4487.17937745364820000000, 4206.15374329997940000000, 4497.94860795953720000000, 4264.61528033194740000000, 0.00000000000000000000, 3.00000000000000000000, 4.00000000000000000000, 2.00000000000000000000, 4.00000000000000000000, 4.00000000000000000000, 2.00000000000000000000, 0.00000000000000000000, 0.00000000000000000000, 4.00000000000000000000, 4.00000000000000000000, 2.00000000000000000000, 2.00000000000000000000, 4.00000000000000000000, 3.00000000000000000000, 4.00000000000000000000, 4.00000000000000000000, 1666.00000000000000000000, 1688.00000000000000000000, 0.00000000000000000000
64.00000000000000000000, 0.00000000000000000000, 4040.51272170940500000000, 4729.74347408628550000000, 4208.20502530110120000000, 4614.87168202347220000000, 4248.20502432297420000000, 4830.25629214124730000000, 4276.41015183839680000000, 4297.43579234989370000000, 4481.53835195056310000000, 4814.87167713283450000000, 4481.53835195056310000000, 4205.12810229941900000000, 4505.12809496346290000000, 4256.41015232746030000000, 261.00000000000000000000, 3.00000000000000000000, 4.00000000000000000000, 2.00000000000000000000, 4.00000000000000000000, 4.00000000000000000000, 2.00000000000000000000, 0.00000000000000000000, 0.00000000000000000000, 4.00000000000000000000, 4.00000000000000000000, 2.00000000000000000000, 2.00000000000000000000, 4.00000000000000000000, 3.00000000000000000000, 4.00000000000000000000, 4.00000000000000000000, 1668.00000000000000000000, 1687.00000000000000000000, 0.00000000000000000000
65.00000000000000000000, 0.00000000000000000000, 4041.53836270996590000000, 4731.28193558712610000000, 4209.74348680194270000000, 4614.35886152319110000000, 4234.87169131568320000000, 4830.76911264152750000000, 4276.92297233867700000000, 4296.92297184961350000000, 4476.92296744803930000000, 4811.79475413115230000000, 4476.41014694775910000000, 4205.64092279969920000000, 4512.30758196738860000000, 4254.87169082661880000000, 422.00000000000000000000, 3.00000000000000000000, 4.00000000000000000000, 2.00000000000000000000, 4.00000000000000000000, 4.00000000000000000000, 2.00000000000000000000, 0.00000000000000000000, 0.00000000000000000000, 4.00000000000000000000, 4.00000000000000000000, 2.00000000000000000000, 2.00000000000000000000, 4.00000000000000000000, 3.00000000000000000000, 4.00000000000000000000, 4.00000000000000000000, 1667.00000000000000000000, 1686.00000000000000000000, 0.00000000000000000000
66.00000000000000000000, 0.00000000000000000000, 4038.46143970828330000000, 4733.84603808852900000000, 4210.25630730222290000000, 4616.41014352431280000000, 4234.87169131568320000000, 4830.76911264152750000000, 4277.94861333923840000000, 4296.41015134933330000000, 4470.76912144467500000000, 4812.30757463143250000000, 4480.51271095000270000000, 4206.15374329997940000000, 4507.17937696458470000000, 4262.05117783054540000000, 360.00000000000000000000, 3.00000000000000000000, 4.00000000000000000000, 2.00000000000000000000, 4.00000000000000000000, 4.00000000000000000000, 2.00000000000000000000, 0.00000000000000000000, 0.00000000000000000000, 4.00000000000000000000, 4.00000000000000000000, 2.00000000000000000000, 2.00000000000000000000, 4.00000000000000000000, 3.00000000000000000000, 4.00000000000000000000, 4.00000000000000000000, 1667.00000000000000000000, 1687.00000000000000000000, 0.00000000000000000000
67.00000000000000000000, 0.00000000000000000000, 4036.41015770716150000000, 4728.20501258544390000000, 4208.20502530110120000000, 4615.89732302403260000000, 4241.02553731904750000000, 4830.25629214124730000000, 4278.46143383951860000000, 4295.89733084905220000000, 4469.23065994383340000000, 4809.23065162974940000000, 4482.56399295112440000000, 4206.66656380025960000000, 4501.53835146149960000000, 4261.02553682998400000000, 440.00000000000000000000, 3.00000000000000000000, 4.00000000000000000000, 2.00000000000000000000, 4.00000000000000000000, 4.00000000000000000000, 2.00000000000000000000, 0.00000000000000000000, 0.00000000000000000000, 4.00000000000000000000, 4.00000000000000000000, 2.00000000000000000000, 2.00000000000000000000, 4.00000000000000000000, 3.00000000000000000000, 4.00000000000000000000, 4.00000000000000000000, 1667.00000000000000000000, 1686.00000000000000000000, 0.00000000000000000000
68.00000000000000000000, 0.00000000000000000000, 4033.84605520575950000000, 4729.23065358600520000000, 4206.66656380025960000000, 4615.38450252375240000000, 4243.58963982045040000000, 4829.23065114068590000000, 4279.99989534035920000000, 4295.89733084905220000000, 4466.15373694215120000000, 4802.56398512610490000000, 4476.92296744803930000000, 4207.17938430054070000000, 4494.35886445757390000000, 4252.82040882549790000000, 525.00000000000000000000, 3.00000000000000000000, 4.00000000000000000000, 2.00000000000000000000, 4.00000000000000000000, 4.00000000000000000000, 2.00000000000000000000, 0.00000000000000000000, 0.00000000000000000000, 4.00000000000000000000, 4.00000000000000000000, 2.00000000000000000000, 2.00000000000000000000, 4.00000000000000000000, 3.00000000000000000000, 4.00000000000000000000, 4.00000000000000000000, 1666.00000000000000000000, 1687.00000000000000000000, 0.00000000000000000000
69.00000000000000000000, 0.00000000000000000000, 4033.33323470547930000000, 4740.51270459217360000000, 4210.76912780250310000000, 4616.92296402459400000000, 4242.56399881988910000000, 4827.69218963984530000000, 4282.56399784176210000000, 4296.41015134933330000000, 4462.05117293990770000000, 4799.99988262470200000000, 4474.87168544691850000000, 4202.56399979801700000000, 4496.92296695897580000000, 4248.20502432297420000000, 202.00000000000000000000, 3.00000000000000000000, 4.00000000000000000000, 2.00000000000000000000, 4.00000000000000000000, 4.00000000000000000000, 2.00000000000000000000, 0.00000000000000000000, 0.00000000000000000000, 4.00000000000000000000, 4.00000000000000000000, 2.00000000000000000000, 2.00000000000000000000, 4.00000000000000000000, 3.00000000000000000000, 4.00000000000000000000, 4.00000000000000000000, 1668.00000000000000000000, 1687.00000000000000000000, 0.00000000000000000000
70.00000000000000000000, 0.00000000000000000000, 4038.97426020856350000000, 4749.23065309694080000000, 4211.28194830278330000000, 4618.46142552543460000000, 4234.35887081540300000000, 4828.20501014012550000000, 4282.05117734148100000000, 4296.41015134933330000000, 4461.02553193934640000000, 4804.61526712722570000000, 4474.35886494663740000000, 4201.02553829717540000000, 4508.71783846542530000000, 4250.25630632409500000000, 0.00000000000000000000, 3.00000000000000000000, 4.00000000000000000000, 2.00000000000000000000, 4.00000000000000000000, 4.00000000000000000000, 2.00000000000000000000, 0.00000000000000000000, 0.00000000000000000000, 4.00000000000000000000, 4.00000000000000000000, 2.00000000000000000000, 2.00000000000000000000, 4.00000000000000000000, 3.00000000000000000000, 4.00000000000000000000, 4.00000000000000000000, 1667.00000000000000000000, 1687.00000000000000000000, 0.00000000000000000000
71.00000000000000000000, 0.00000000000000000000, 4043.58964471108720000000, 4751.28193509806260000000, 4207.69220480082090000000, 4617.94860502515440000000, 4229.74348631287920000000, 4827.69218963984530000000, 4281.53835684120080000000, 4295.89733084905220000000, 4461.02553193934640000000, 4808.71783112946920000000, 4475.89732644747890000000, 4202.56399979801700000000, 4507.69219746486490000000, 4249.23066532353460000000, 0.00000000000000000000, 3.00000000000000000000, 4.00000000000000000000, 2.00000000000000000000, 4.00000000000000000000, 4.00000000000000000000, 2.00000000000000000000, 0.00000000000000000000, 0.00000000000000000000, 4.00000000000000000000, 4.00000000000000000000, 2.00000000000000000000, 2.00000000000000000000, 4.00000000000000000000, 3.00000000000000000000, 4.00000000000000000000, 4.00000000000000000000, 1667.00000000000000000000, 1687.00000000000000000000, 0.00000000000000000000
72.00000000000000000000, 0.00000000000000000000, 4045.12810621192880000000, 4750.25629409750220000000, 4206.15374329997940000000, 4616.41014352431280000000, 4234.87169131568320000000, 4827.17936913956420000000, 4282.05117734148100000000, 4294.87168984849180000000, 4462.05117293990770000000, 4806.15372862806730000000, 4477.43578794832050000000, 4200.51271779689520000000, 4503.58963346262140000000, 4247.69220382269300000000, 446.00000000000000000000, 3.00000000000000000000, 4.00000000000000000000, 2.00000000000000000000, 4.00000000000000000000, 4.00000000000000000000, 2.00000000000000000000, 0.00000000000000000000, 0.00000000000000000000, 4.00000000000000000000, 4.00000000000000000000, 2.00000000000000000000, 2.00000000000000000000, 4.00000000000000000000, 3.00000000000000000000, 4.00000000000000000000, 4.00000000000000000000, 1667.00000000000000000000, 1687.00000000000000000000, 0.00000000000000000000
73.00000000000000000000, 0.00000000000000000000, 4045.12810621192880000000, 4748.20501209638040000000, 4205.64092279969920000000, 4611.79475902178910000000, 4238.97425531792670000000, 4827.17936913956420000000, 4283.07681834204230000000, 4295.38451034877200000000, 4462.05117293990770000000, 4803.58962612666530000000, 4475.38450594719870000000, 4201.53835879745570000000, 4508.71783846542530000000, 4249.74348582381480000000, 460.00000000000000000000, 3.00000000000000000000, 4.00000000000000000000, 2.00000000000000000000, 4.00000000000000000000, 4.00000000000000000000, 2.00000000000000000000, 0.00000000000000000000, 0.00000000000000000000, 4.00000000000000000000, 4.00000000000000000000, 2.00000000000000000000, 2.00000000000000000000, 4.00000000000000000000, 3.00000000000000000000, 4.00000000000000000000, 4.00000000000000000000, 1668.00000000000000000000, 1686.00000000000000000000, 0.00000000000000000000
74.00000000000000000000, 0.00000000000000000000, 4041.53836270996590000000, 4747.69219159610020000000, 4206.15374329997940000000, 4609.23065652038710000000, 4236.41015281652380000000, 4826.15372813900380000000, 4282.05117734148100000000, 4297.43579234989370000000, 4457.94860893766420000000, 4800.51270312498310000000, 4473.84604444635720000000, 4207.17938430054070000000, 4506.15373596402330000000, 4254.87169082661880000000, 445.00000000000000000000, 3.00000000000000000000, 4.00000000000000000000, 2.00000000000000000000, 4.00000000000000000000, 4.00000000000000000000, 2.00000000000000000000, 0.00000000000000000000, 0.00000000000000000000, 4.00000000000000000000, 4.00000000000000000000, 2.00000000000000000000, 2.00000000000000000000, 4.00000000000000000000, 3.00000000000000000000, 4.00000000000000000000, 4.00000000000000000000, 1668.00000000000000000000, 1685.00000000000000000000, 0.00000000000000000000
75.00000000000000000000, 0.00000000000000000000, 4040.51272170940500000000, 4747.17937109581910000000, 4208.20502530110120000000, 4614.35886152319110000000, 4235.38451181596340000000, 4826.66654863928400000000, 4279.48707484007900000000, 4297.43579234989370000000, 4458.97424993822550000000, 4797.43578012330000000000, 4474.87168544691850000000, 4207.69220480082090000000, 4505.64091546374310000000, 4258.97425482886230000000, 333.00000000000000000000, 3.00000000000000000000, 4.00000000000000000000, 2.00000000000000000000, 4.00000000000000000000, 4.00000000000000000000, 2.00000000000000000000, 0.00000000000000000000, 0.00000000000000000000, 4.00000000000000000000, 4.00000000000000000000, 2.00000000000000000000, 2.00000000000000000000, 4.00000000000000000000, 3.00000000000000000000, 4.00000000000000000000, 4.00000000000000000000, 1669.00000000000000000000, 1686.00000000000000000000, 0.00000000000000000000
76.00000000000000000000, 0.00000000000000000000, 4042.56400371052680000000, 4743.07680709357650000000, 4210.76912780250310000000, 4617.43578452487420000000, 4237.94861431736540000000, 4829.23065114068590000000, 4280.51271584064030000000, 4296.41015134933330000000, 4463.07681394046810000000, 4799.99988262470200000000, 4478.97424944916110000000, 4206.15374329997940000000, 4512.82040246766880000000, 4260.51271632970380000000, 253.00000000000000000000, 3.00000000000000000000, 4.00000000000000000000, 2.00000000000000000000, 4.00000000000000000000, 4.00000000000000000000, 2.00000000000000000000, 0.00000000000000000000, 0.00000000000000000000, 4.00000000000000000000, 4.00000000000000000000, 3.00000000000000000000, 2.00000000000000000000, 4.00000000000000000000, 3.00000000000000000000, 4.00000000000000000000, 4.00000000000000000000, 1669.00000000000000000000, 1685.00000000000000000000, 0.00000000000000000000
77.00000000000000000000, 0.00000000000000000000, 4044.61528571164810000000, 4736.41014058993100000000, 4211.28194830278330000000, 4614.87168202347220000000, 4243.07681932016930000000, 4829.74347164096620000000, 4282.05117734148100000000, 4297.94861285017400000000, 4466.66655744243140000000, 4807.69219012890880000000, 4485.12809545252640000000, 4208.71784580138140000000, 4508.71783846542530000000, 4263.07681883110580000000, 182.00000000000000000000, 3.00000000000000000000, 4.00000000000000000000, 2.00000000000000000000, 4.00000000000000000000, 4.00000000000000000000, 2.00000000000000000000, 0.00000000000000000000, 0.00000000000000000000, 4.00000000000000000000, 4.00000000000000000000, 3.00000000000000000000, 2.00000000000000000000, 4.00000000000000000000, 3.00000000000000000000, 4.00000000000000000000, 4.00000000000000000000, 1668.00000000000000000000, 1687.00000000000000000000, 0.00000000000000000000
78.00000000000000000000, 0.00000000000000000000, 4050.76913171501340000000, 4735.38449958936960000000, 4213.84605080418620000000, 4614.35886152319110000000, 4249.74348582381480000000, 4828.71783064040570000000, 4280.51271584064030000000, 4298.97425385073530000000, 4477.94860844860070000000, 4818.97424113507800000000, 4488.71783895448970000000, 4211.79476880306450000000, 4503.58963346262140000000, 4267.69220333362950000000, 445.00000000000000000000, 3.00000000000000000000, 4.00000000000000000000, 2.00000000000000000000, 4.00000000000000000000, 4.00000000000000000000, 2.00000000000000000000, 0.00000000000000000000, 0.00000000000000000000, 4.00000000000000000000, 4.00000000000000000000, 3.00000000000000000000, 2.00000000000000000000, 4.00000000000000000000, 3.00000000000000000000, 4.00000000000000000000, 4.00000000000000000000, 1668.00000000000000000000, 1685.00000000000000000000, 0.00000000000000000000
79.00000000000000000000, 0.00000000000000000000, 4051.79477271557430000000, 4732.82039708796760000000, 4214.87169180474670000000, 4610.25629752094850000000, 4247.69220382269300000000, 4829.74347164096620000000, 4279.99989534035920000000, 4296.92297184961350000000, 4488.20501845420860000000, 4832.82039464264930000000, 4490.25630045533030000000, 4210.76912780250310000000, 4517.94860747047280000000, 4271.79476733587310000000, 333.00000000000000000000, 3.00000000000000000000, 4.00000000000000000000, 2.00000000000000000000, 4.00000000000000000000, 4.00000000000000000000, 2.00000000000000000000, 0.00000000000000000000, 0.00000000000000000000, 4.00000000000000000000, 4.00000000000000000000, 3.00000000000000000000, 2.00000000000000000000, 4.00000000000000000000, 3.00000000000000000000, 4.00000000000000000000, 4.00000000000000000000, 1666.00000000000000000000, 1687.00000000000000000000, 0.00000000000000000000
80.00000000000000000000, 0.00000000000000000000, 4044.61528571164810000000, 4728.71783308572410000000, 4213.33323030390510000000, 4605.12809251814360000000, 4242.56399881988910000000, 4829.74347164096620000000, 4282.05117734148100000000, 4295.38451034877200000000, 4486.15373645308680000000, 4836.92295864489280000000, 4488.20501845420860000000, 4211.28194830278330000000, 4533.33322247888550000000, 4269.23066483447110000000, 253.00000000000000000000, 3.00000000000000000000, 4.00000000000000000000, 2.00000000000000000000, 4.00000000000000000000, 4.00000000000000000000, 2.00000000000000000000, 0.00000000000000000000, 0.00000000000000000000, 4.00000000000000000000, 4.00000000000000000000, 3.00000000000000000000, 2.00000000000000000000, 4.00000000000000000000, 3.00000000000000000000, 4.00000000000000000000, 4.00000000000000000000, 1668.00000000000000000000, 1687.00000000000000000000, 0.00000000000000000000
81.00000000000000000000, 0.00000000000000000000, 4038.46143970828330000000, 4730.25629458656570000000, 4208.71784580138140000000, 4608.71783602010690000000, 4246.66656282213260000000, 4829.74347164096620000000, 4278.46143383951860000000, 4295.89733084905220000000, 4478.46142894888090000000, 4823.07680513732160000000, 4480.51271095000270000000, 4208.71784580138140000000, 4525.64091497467960000000, 4258.46143432858210000000, 182.00000000000000000000, 3.00000000000000000000, 4.00000000000000000000, 2.00000000000000000000, 4.00000000000000000000, 4.00000000000000000000, 2.00000000000000000000, 0.00000000000000000000, 0.00000000000000000000, 4.00000000000000000000, 4.00000000000000000000, 3.00000000000000000000, 2.00000000000000000000, 4.00000000000000000000, 3.00000000000000000000, 4.00000000000000000000, 4.00000000000000000000, 1667.00000000000000000000, 1688.00000000000000000000, 0.00000000000000000000
82.00000000000000000000, 0.00000000000000000000, 4035.89733720688130000000, 4733.33321758824790000000, 4203.07682029829720000000, 4614.35886152319110000000, 4252.30758832521680000000, 4828.20501014012550000000, 4275.89733133811660000000, 4295.38451034877200000000, 4471.28194194495520000000, 4812.82039513171280000000, 4475.89732644747890000000, 4200.51271779689520000000, 4509.23065896570640000000, 4253.33322932577810000000, 445.00000000000000000000, 3.00000000000000000000, 4.00000000000000000000, 2.00000000000000000000, 4.00000000000000000000, 4.00000000000000000000, 2.00000000000000000000, 0.00000000000000000000, 0.00000000000000000000, 4.00000000000000000000, 4.00000000000000000000, 3.00000000000000000000, 2.00000000000000000000, 4.00000000000000000000, 3.00000000000000000000, 4.00000000000000000000, 4.00000000000000000000, 1667.00000000000000000000, 1689.00000000000000000000, 0.00000000000000000000
