title:s1                                                                              , recorded:09.12.13 15.22.52, sampling:128, subject:anthony                                                                         , labels:COUNTER INTERPOLATED AF3 F7 F3 FC5 T7 P7 O1 O2 P8 T8 FC6 F4 F8 AF4 RAW_CQ CQ_AF3 CQ_F7 CQ_F3 CQ_FC5 CQ_T7 CQ_P7 CQ_O1 CQ_O2 CQ_P8 CQ_T8 CQ_FC6 CQ_F4 CQ_F8 CQ_AF4 CQ_CMS CQ_DRL GYROX GYROY MARKER, chan:36, units:emotiv
86.00000000000000000000, 0.00000000000000000000, 4102.05118174305520000000, 4769.23065260787730000000, 4296.92297184961350000000, 4636.41014303524930000000, 4298.46143335045510000000, 4823.58962563760180000000, 4278.97425433979880000000, 4297.94861285017400000000, 4548.20501698701810000000, 4914.35885418723500000000, 4485.64091595280660000000, 4308.20502285578280000000, 4516.41014596963210000000, 4339.99989387316870000000, 475.00000000000000000000, 4.00000000000000000000, 4.00000000000000000000, 4.00000000000000000000, 4.00000000000000000000, 4.00000000000000000000, 4.00000000000000000000, 0.00000000000000000000, 0.00000000000000000000, 4.00000000000000000000, 4.00000000000000000000, 4.00000000000000000000, 4.00000000000000000000, 4.00000000000000000000, 4.00000000000000000000, 4.00000000000000000000, 4.00000000000000000000, 1666.00000000000000000000, 1689.00000000000000000000, 0.00000000000000000000
87.00000000000000000000, 0.00000000000000000000, 4101.02554074249380000000, 4768.71783210759710000000, 4294.35886934821160000000, 4631.79475853272560000000, 4301.02553585185710000000, 4827.17936913956420000000, 4279.48707484007900000000, 4296.92297184961350000000, 4548.20501698701810000000, 4909.74346968471130000000, 4486.66655695336790000000, 4305.64092035438080000000, 4515.38450496907080000000, 4339.48707337288760000000, 473.00000000000000000000, 4.00000000000000000000, 4.00000000000000000000, 4.00000000000000000000, 4.00000000000000000000, 4.00000000000000000000, 4.00000000000000000000, 0.00000000000000000000, 0.00000000000000000000, 4.00000000000000000000, 4.00000000000000000000, 4.00000000000000000000, 4.00000000000000000000, 4.00000000000000000000, 4.00000000000000000000, 4.00000000000000000000, 4.00000000000000000000, 1667.00000000000000000000, 1688.00000000000000000000, 0.00000000000000000000
88.00000000000000000000, 0.00000000000000000000, 4103.07682274361560000000, 4775.38449861124260000000, 4298.46143335045510000000, 4634.87168153440780000000, 4310.76912535718470000000, 4827.69218963984530000000, 4284.10245934260270000000, 4297.43579234989370000000, 4560.51270899374780000000, 4912.82039268639440000000, 4490.76912095561060000000, 4308.71784335606300000000, 4523.58963297355790000000, 4339.99989387316870000000, 470.00000000000000000000, 4.00000000000000000000, 4.00000000000000000000, 4.00000000000000000000, 4.00000000000000000000, 4.00000000000000000000, 4.00000000000000000000, 0.00000000000000000000, 0.00000000000000000000, 4.00000000000000000000, 4.00000000000000000000, 4.00000000000000000000, 4.00000000000000000000, 4.00000000000000000000, 4.00000000000000000000, 4.00000000000000000000, 4.00000000000000000000, 1668.00000000000000000000, 1688.00000000000000000000, 0.00000000000000000000
89.00000000000000000000, 0.00000000000000000000, 4098.46143824109190000000, 4772.82039610984070000000, 4299.48707435101550000000, 4634.87168153440780000000, 4309.23066385634320000000, 4826.15372813900380000000, 4282.56399784176210000000, 4297.94861285017400000000, 4553.33322198982210000000, 4908.20500818387060000000, 4489.74347995505010000000, 4309.23066385634320000000, 4522.05117147271630000000, 4336.92297087148560000000, 458.00000000000000000000, 4.00000000000000000000, 4.00000000000000000000, 4.00000000000000000000, 4.00000000000000000000, 4.00000000000000000000, 4.00000000000000000000, 0.00000000000000000000, 0.00000000000000000000, 4.00000000000000000000, 4.00000000000000000000, 4.00000000000000000000, 4.00000000000000000000, 4.00000000000000000000, 4.00000000000000000000, 4.00000000000000000000, 4.00000000000000000000, 1669.00000000000000000000, 1687.00000000000000000000, 0.00000000000000000000
90.00000000000000000000, 0.00000000000000000000, 4096.41015623997010000000, 4763.58962710479320000000, 4297.94861285017400000000, 4632.30757903300580000000, 4306.66656135494120000000, 4827.17936913956420000000, 4279.48707484007900000000, 4295.38451034877200000000, 4536.92296598084890000000, 4900.51270067966380000000, 4491.79476195617190000000, 4308.20502285578280000000, 4508.20501796514510000000, 4337.43579137176680000000, 475.00000000000000000000, 4.00000000000000000000, 4.00000000000000000000, 4.00000000000000000000, 4.00000000000000000000, 4.00000000000000000000, 4.00000000000000000000, 0.00000000000000000000, 0.00000000000000000000, 4.00000000000000000000, 4.00000000000000000000, 4.00000000000000000000, 4.00000000000000000000, 4.00000000000000000000, 4.00000000000000000000, 4.00000000000000000000, 4.00000000000000000000, 1668.00000000000000000000, 1688.00000000000000000000, 0.00000000000000000000
91.00000000000000000000, 0.00000000000000000000, 4103.07682274361560000000, 4768.20501160731690000000, 4303.58963835325900000000, 4634.87168153440780000000, 4309.23066385634320000000, 4827.69218963984530000000, 4281.02553634092060000000, 4296.41015134933330000000, 4541.53835048337260000000, 4911.28193118555280000000, 4493.33322345701340000000, 4308.71784335606300000000, 4512.30758196738860000000, 4339.99989387316870000000, 473.00000000000000000000, 4.00000000000000000000, 4.00000000000000000000, 4.00000000000000000000, 4.00000000000000000000, 4.00000000000000000000, 4.00000000000000000000, 0.00000000000000000000, 0.00000000000000000000, 4.00000000000000000000, 4.00000000000000000000, 4.00000000000000000000, 4.00000000000000000000, 4.00000000000000000000, 4.00000000000000000000, 4.00000000000000000000, 4.00000000000000000000, 1670.00000000000000000000, 1688.00000000000000000000, 0.00000000000000000000
92.00000000000000000000, 0.00000000000000000000, 4108.20502774641950000000, 4781.02552411432680000000, 4312.30758685802630000000, 4643.07680953889480000000, 4311.28194585746500000000, 4827.17936913956420000000, 4284.10245934260270000000, 4297.94861285017400000000, 4556.92296549178450000000, 4921.02552069088050000000, 4487.69219795392840000000, 4309.23066385634320000000, 4533.84604297916580000000, 4342.56399637457070000000, 470.00000000000000000000, 4.00000000000000000000, 4.00000000000000000000, 4.00000000000000000000, 4.00000000000000000000, 4.00000000000000000000, 4.00000000000000000000, 0.00000000000000000000, 0.00000000000000000000, 4.00000000000000000000, 4.00000000000000000000, 4.00000000000000000000, 4.00000000000000000000, 4.00000000000000000000, 4.00000000000000000000, 4.00000000000000000000, 4.00000000000000000000, 1670.00000000000000000000, 1687.00000000000000000000, 0.00000000000000000000
93.00000000000000000000, 0.00000000000000000000, 4107.69220724613930000000, 4782.05116511488810000000, 4313.33322785858670000000, 4646.66655304085820000000, 4314.87168935942830000000, 4829.74347164096620000000, 4281.02553634092060000000, 4296.41015134933330000000, 4562.05117049458930000000, 4919.48705919003990000000, 4490.76912095561060000000, 4313.33322785858670000000, 4540.51270948281130000000, 4346.66656037681420000000, 458.00000000000000000000, 4.00000000000000000000, 4.00000000000000000000, 4.00000000000000000000, 4.00000000000000000000, 4.00000000000000000000, 4.00000000000000000000, 0.00000000000000000000, 0.00000000000000000000, 4.00000000000000000000, 4.00000000000000000000, 4.00000000000000000000, 4.00000000000000000000, 4.00000000000000000000, 4.00000000000000000000, 4.00000000000000000000, 4.00000000000000000000, 1670.00000000000000000000, 1688.00000000000000000000, 0.00000000000000000000
94.00000000000000000000, 0.00000000000000000000, 4107.69220724613930000000, 4775.38449861124260000000, 4311.28194585746500000000, 4643.07680953889480000000, 4315.38450985970850000000, 4834.87167664377100000000, 4281.53835684120080000000, 4297.43579234989370000000, 4564.61527299599130000000, 4926.15372569368540000000, 4506.66655646430350000000, 4322.05117636335400000000, 4537.94860698140930000000, 4349.23066287821620000000, 475.00000000000000000000, 4.00000000000000000000, 4.00000000000000000000, 4.00000000000000000000, 4.00000000000000000000, 4.00000000000000000000, 4.00000000000000000000, 0.00000000000000000000, 0.00000000000000000000, 4.00000000000000000000, 4.00000000000000000000, 4.00000000000000000000, 4.00000000000000000000, 4.00000000000000000000, 4.00000000000000000000, 4.00000000000000000000, 4.00000000000000000000, 1670.00000000000000000000, 1688.00000000000000000000, 0.00000000000000000000
95.00000000000000000000, 0.00000000000000000000, 4109.23066874698090000000, 4773.84603711040110000000, 4313.84604835886690000000, 4642.05116853833440000000, 4309.74348435662340000000, 4832.82039464264930000000, 4285.12810034316410000000, 4298.97425385073530000000, 4570.76911899935570000000, 4937.43577669985370000000, 4510.25629996626690000000, 4328.20502236671840000000, 4546.66655548617650000000, 4351.79476537961820000000, 473.00000000000000000000, 4.00000000000000000000, 4.00000000000000000000, 4.00000000000000000000, 4.00000000000000000000, 4.00000000000000000000, 4.00000000000000000000, 0.00000000000000000000, 0.00000000000000000000, 4.00000000000000000000, 4.00000000000000000000, 4.00000000000000000000, 4.00000000000000000000, 4.00000000000000000000, 4.00000000000000000000, 4.00000000000000000000, 4.00000000000000000000, 1670.00000000000000000000, 1690.00000000000000000000, 0.00000000000000000000
96.00000000000000000000, 0.00000000000000000000, 4110.76913024782240000000, 4780.51270361404660000000, 4314.87168935942830000000, 4648.20501454169880000000, 4312.82040735830650000000, 4825.64090763872350000000, 4280.51271584064030000000, 4298.97425385073530000000, 4578.97424700384270000000, 4938.46141770041500000000, 4508.71783846542530000000, 4329.23066336727970000000, 4548.71783748729830000000, 4357.43579088270230000000, 470.00000000000000000000, 4.00000000000000000000, 4.00000000000000000000, 4.00000000000000000000, 4.00000000000000000000, 4.00000000000000000000, 4.00000000000000000000, 0.00000000000000000000, 0.00000000000000000000, 4.00000000000000000000, 4.00000000000000000000, 4.00000000000000000000, 4.00000000000000000000, 4.00000000000000000000, 4.00000000000000000000, 4.00000000000000000000, 4.00000000000000000000, 1671.00000000000000000000, 1688.00000000000000000000, 0.00000000000000000000
97.00000000000000000000, 0.00000000000000000000, 4111.79477124838290000000, 4781.02552411432680000000, 4313.33322785858670000000, 4649.74347604254040000000, 4318.97425336167090000000, 4831.28193314180770000000, 4276.92297233867700000000, 4296.41015134933330000000, 4578.97424700384270000000, 4926.66654619396560000000, 4510.76912046654710000000, 4329.23066336727970000000, 4536.41014548056770000000, 4355.38450888158060000000, 458.00000000000000000000, 4.00000000000000000000, 4.00000000000000000000, 4.00000000000000000000, 4.00000000000000000000, 4.00000000000000000000, 4.00000000000000000000, 0.00000000000000000000, 0.00000000000000000000, 4.00000000000000000000, 4.00000000000000000000, 4.00000000000000000000, 4.00000000000000000000, 4.00000000000000000000, 4.00000000000000000000, 4.00000000000000000000, 4.00000000000000000000, 1669.00000000000000000000, 1688.00000000000000000000, 0.00000000000000000000
98.00000000000000000000, 0.00000000000000000000, 4108.20502774641950000000, 4769.74347310815760000000, 4309.23066385634320000000, 4641.02552753777310000000, 4318.97425336167090000000, 4842.56398414797700000000, 4282.05117734148100000000, 4296.92297184961350000000, 4567.69219599767350000000, 4917.43577718891810000000, 4499.48706946037780000000, 4323.07681736391440000000, 4533.33322247888550000000, 4344.61527837569250000000, 475.00000000000000000000, 4.00000000000000000000, 4.00000000000000000000, 4.00000000000000000000, 4.00000000000000000000, 4.00000000000000000000, 4.00000000000000000000, 0.00000000000000000000, 0.00000000000000000000, 4.00000000000000000000, 4.00000000000000000000, 4.00000000000000000000, 4.00000000000000000000, 4.00000000000000000000, 4.00000000000000000000, 4.00000000000000000000, 4.00000000000000000000, 1671.00000000000000000000, 1688.00000000000000000000, 0.00000000000000000000
99.00000000000000000000, 0.00000000000000000000, 4105.12810474473740000000, 4766.15372960619520000000, 4309.23066385634320000000, 4639.99988653721270000000, 4318.46143286139070000000, 4836.92295864489280000000, 4284.10245934260270000000, 4300.51271535157590000000, 4564.10245249571020000000, 4925.64090519340430000000, 4491.79476195617190000000, 4319.99989436223220000000, 4538.97424798197060000000, 4342.56399637457070000000, 473.00000000000000000000, 4.00000000000000000000, 4.00000000000000000000, 4.00000000000000000000, 4.00000000000000000000, 4.00000000000000000000, 4.00000000000000000000, 0.00000000000000000000, 0.00000000000000000000, 4.00000000000000000000, 4.00000000000000000000, 4.00000000000000000000, 4.00000000000000000000, 4.00000000000000000000, 4.00000000000000000000, 4.00000000000000000000, 4.00000000000000000000, 1669.00000000000000000000, 1686.00000000000000000000, 0.00000000000000000000
100.00000000000000000000, 0.00000000000000000000, 4107.69220724613930000000, 4772.30757560955950000000, 4311.28194585746500000000, 4647.69219404141860000000, 4318.46143286139070000000, 4827.17936913956420000000, 4279.99989534035920000000, 4299.99989485129570000000, 4576.41014450244070000000, 4939.99987920125660000000, 4497.43578745925610000000, 4325.12809936503620000000, 4534.35886347944600000000, 4349.74348337849640000000, 470.00000000000000000000, 4.00000000000000000000, 4.00000000000000000000, 4.00000000000000000000, 4.00000000000000000000, 4.00000000000000000000, 4.00000000000000000000, 0.00000000000000000000, 0.00000000000000000000, 4.00000000000000000000, 4.00000000000000000000, 4.00000000000000000000, 4.00000000000000000000, 4.00000000000000000000, 4.00000000000000000000, 4.00000000000000000000, 4.00000000000000000000, 1670.00000000000000000000, 1686.00000000000000000000, 0.00000000000000000000
101.00000000000000000000, 0.00000000000000000000, 4109.74348924726110000000, 4770.76911410871890000000, 4310.25630485690450000000, 4648.20501454169880000000, 4313.33322785858670000000, 4827.69218963984530000000, 4280.51271584064030000000, 4295.38451034877200000000, 4575.89732400216050000000, 4934.87167419845170000000, 4503.07681296234110000000, 4329.23066336727970000000, 4532.30758147832510000000, 4351.79476537961820000000, 458.00000000000000000000, 4.00000000000000000000, 4.00000000000000000000, 4.00000000000000000000, 4.00000000000000000000, 4.00000000000000000000, 4.00000000000000000000, 0.00000000000000000000, 0.00000000000000000000, 4.00000000000000000000, 4.00000000000000000000, 4.00000000000000000000, 4.00000000000000000000, 4.00000000000000000000, 4.00000000000000000000, 4.00000000000000000000, 4.00000000000000000000, 1669.00000000000000000000, 1686.00000000000000000000, 0.00000000000000000000
102.00000000000000000000, 0.00000000000000000000, 4108.71784824670070000000, 4764.10244760507340000000, 4309.74348435662340000000, 4644.61527103973640000000, 4310.25630485690450000000, 4830.76911264152750000000, 4281.02553634092060000000, 4295.89733084905220000000, 4558.97424749290620000000, 4919.99987969032010000000, 4501.02553096121940000000, 4325.64091986531640000000, 4534.87168397972710000000, 4347.69220137737470000000, 475.00000000000000000000, 4.00000000000000000000, 4.00000000000000000000, 4.00000000000000000000, 4.00000000000000000000, 4.00000000000000000000, 4.00000000000000000000, 0.00000000000000000000, 0.00000000000000000000, 4.00000000000000000000, 4.00000000000000000000, 4.00000000000000000000, 4.00000000000000000000, 4.00000000000000000000, 4.00000000000000000000, 4.00000000000000000000, 4.00000000000000000000, 1670.00000000000000000000, 1686.00000000000000000000, 0.00000000000000000000
103.00000000000000000000, 0.00000000000000000000, 4104.10246374417690000000, 4763.58962710479320000000, 4308.20502285578280000000, 4644.61527103973640000000, 4310.76912535718470000000, 4829.74347164096620000000, 4279.48707484007900000000, 4299.48707435101550000000, 4548.71783748729830000000, 4914.87167468751610000000, 4488.20501845420860000000, 4317.43579186083020000000, 4525.64091497467960000000, 4341.02553487372920000000, 473.00000000000000000000, 4.00000000000000000000, 4.00000000000000000000, 4.00000000000000000000, 4.00000000000000000000, 4.00000000000000000000, 4.00000000000000000000, 0.00000000000000000000, 0.00000000000000000000, 4.00000000000000000000, 4.00000000000000000000, 4.00000000000000000000, 4.00000000000000000000, 4.00000000000000000000, 4.00000000000000000000, 4.00000000000000000000, 4.00000000000000000000, 1668.00000000000000000000, 1686.00000000000000000000, 0.00000000000000000000
104.00000000000000000000, 0.00000000000000000000, 4106.15374574529870000000, 4767.69219110703580000000, 4308.71784335606300000000, 4645.12809154001660000000, 4315.89733035998870000000, 4830.25629214124730000000, 4279.99989534035920000000, 4298.97425385073530000000, 4562.56399099486950000000, 4923.58962319228250000000, 4482.56399295112440000000, 4316.92297136055000000000, 4522.05117147271630000000, 4341.53835537400940000000, 470.00000000000000000000, 4.00000000000000000000, 4.00000000000000000000, 4.00000000000000000000, 4.00000000000000000000, 4.00000000000000000000, 4.00000000000000000000, 0.00000000000000000000, 0.00000000000000000000, 4.00000000000000000000, 4.00000000000000000000, 4.00000000000000000000, 4.00000000000000000000, 4.00000000000000000000, 4.00000000000000000000, 4.00000000000000000000, 4.00000000000000000000, 1668.00000000000000000000, 1687.00000000000000000000, 0.00000000000000000000
105.00000000000000000000, 0.00000000000000000000, 4117.94861725174810000000, 4771.28193460899910000000, 4316.41015086026890000000, 4648.20501454169880000000, 4323.07681736391440000000, 4834.35885614348990000000, 4279.99989534035920000000, 4297.94861285017400000000, 4578.97424700384270000000, 4935.38449469873290000000, 4501.53835146149960000000, 4327.69220186643820000000, 4538.46142748168950000000, 4354.87168838130040000000, 458.00000000000000000000, 4.00000000000000000000, 4.00000000000000000000, 4.00000000000000000000, 4.00000000000000000000, 4.00000000000000000000, 4.00000000000000000000, 0.00000000000000000000, 0.00000000000000000000, 4.00000000000000000000, 4.00000000000000000000, 4.00000000000000000000, 4.00000000000000000000, 4.00000000000000000000, 4.00000000000000000000, 4.00000000000000000000, 4.00000000000000000000, 1669.00000000000000000000, 1686.00000000000000000000, 0.00000000000000000000
106.00000000000000000000, 0.00000000000000000000, 4119.48707875258880000000, 4770.25629360843780000000, 4318.46143286139070000000, 4650.76911704310080000000, 4318.46143286139070000000, 4835.89731764433150000000, 4279.48707484007900000000, 4297.94861285017400000000, 4564.10245249571020000000, 4933.33321269761110000000, 4510.25629996626690000000, 4329.74348386755990000000, 4543.58963248449440000000, 4356.92297038242210000000, 475.00000000000000000000, 4.00000000000000000000, 4.00000000000000000000, 4.00000000000000000000, 4.00000000000000000000, 4.00000000000000000000, 4.00000000000000000000, 0.00000000000000000000, 0.00000000000000000000, 4.00000000000000000000, 4.00000000000000000000, 4.00000000000000000000, 4.00000000000000000000, 4.00000000000000000000, 4.00000000000000000000, 4.00000000000000000000, 4.00000000000000000000, 1668.00000000000000000000, 1688.00000000000000000000, 0.00000000000000000000
107.00000000000000000000, 0.00000000000000000000, 4106.66656624557890000000, 4762.05116560395160000000, 4310.76912535718470000000, 4647.17937354113840000000, 4308.71784335606300000000, 4829.23065114068590000000, 4281.53835684120080000000, 4298.46143335045510000000, 4545.64091448561520000000, 4922.05116169144180000000, 4492.30758245645210000000, 4319.48707386195200000000, 4528.71783797636180000000, 4343.58963737513110000000, 473.00000000000000000000, 4.00000000000000000000, 4.00000000000000000000, 4.00000000000000000000, 4.00000000000000000000, 4.00000000000000000000, 4.00000000000000000000, 0.00000000000000000000, 0.00000000000000000000, 4.00000000000000000000, 4.00000000000000000000, 4.00000000000000000000, 4.00000000000000000000, 4.00000000000000000000, 4.00000000000000000000, 4.00000000000000000000, 4.00000000000000000000, 1668.00000000000000000000, 1687.00000000000000000000, 0.00000000000000000000
108.00000000000000000000, 0.00000000000000000000, 4102.05118174305520000000, 4756.41014010086660000000, 4309.23066385634320000000, 4644.61527103973640000000, 4310.25630485690450000000, 4826.15372813900380000000, 4281.53835684120080000000, 4298.97425385073530000000, 4554.35886299038250000000, 4919.99987969032010000000, 4490.76912095561060000000, 4317.94861236111050000000, 4523.07681247327760000000, 4339.99989387316870000000, 470.00000000000000000000, 4.00000000000000000000, 4.00000000000000000000, 4.00000000000000000000, 4.00000000000000000000, 4.00000000000000000000, 4.00000000000000000000, 0.00000000000000000000, 0.00000000000000000000, 4.00000000000000000000, 4.00000000000000000000, 4.00000000000000000000, 4.00000000000000000000, 4.00000000000000000000, 4.00000000000000000000, 4.00000000000000000000, 4.00000000000000000000, 1667.00000000000000000000, 1688.00000000000000000000, 0.00000000000000000000
109.00000000000000000000, 0.00000000000000000000, 4107.17938674585910000000, 4762.56398610423180000000, 4313.33322785858670000000, 4649.74347604254040000000, 4320.51271486251240000000, 4831.28193314180770000000, 4279.99989534035920000000, 4295.38451034877200000000, 4564.10245249571020000000, 4924.10244369256360000000, 4497.43578745925610000000, 4317.43579186083020000000, 4524.61527397411830000000, 4339.48707337288760000000, 458.00000000000000000000, 4.00000000000000000000, 4.00000000000000000000, 4.00000000000000000000, 4.00000000000000000000, 4.00000000000000000000, 4.00000000000000000000, 0.00000000000000000000, 0.00000000000000000000, 4.00000000000000000000, 4.00000000000000000000, 4.00000000000000000000, 4.00000000000000000000, 4.00000000000000000000, 4.00000000000000000000, 4.00000000000000000000, 4.00000000000000000000, 1668.00000000000000000000, 1687.00000000000000000000, 0.00000000000000000000
110.00000000000000000000, 0.00000000000000000000, 4104.61528424445710000000, 4767.17937060675560000000, 4310.25630485690450000000, 4649.74347604254040000000, 4325.64091986531640000000, 4832.82039464264930000000, 4281.02553634092060000000, 4294.87168984849180000000, 4558.97424749290620000000, 4924.61526419284380000000, 4488.20501845420860000000, 4310.76912535718470000000, 4522.56399197299650000000, 4333.84604786980340000000, 475.00000000000000000000, 4.00000000000000000000, 4.00000000000000000000, 4.00000000000000000000, 4.00000000000000000000, 4.00000000000000000000, 4.00000000000000000000, 0.00000000000000000000, 0.00000000000000000000, 4.00000000000000000000, 4.00000000000000000000, 4.00000000000000000000, 4.00000000000000000000, 4.00000000000000000000, 4.00000000000000000000, 4.00000000000000000000, 4.00000000000000000000, 1668.00000000000000000000, 1687.00000000000000000000, 0.00000000000000000000
111.00000000000000000000, 0.00000000000000000000, 4099.48707924165320000000, 4756.41014010086660000000, 4306.66656135494120000000, 4639.48706603693150000000, 4318.97425336167090000000, 4831.79475364208790000000, 4281.53835684120080000000, 4301.02553585185710000000, 4553.33322198982210000000, 4924.61526419284380000000, 4484.61527495224620000000, 4312.82040735830650000000, 4519.99988947159450000000, 4336.41015037120540000000, 473.00000000000000000000, 4.00000000000000000000, 4.00000000000000000000, 4.00000000000000000000, 4.00000000000000000000, 4.00000000000000000000, 4.00000000000000000000, 0.00000000000000000000, 0.00000000000000000000, 4.00000000000000000000, 4.00000000000000000000, 4.00000000000000000000, 4.00000000000000000000, 4.00000000000000000000, 4.00000000000000000000, 4.00000000000000000000, 4.00000000000000000000, 1668.00000000000000000000, 1687.00000000000000000000, 0.00000000000000000000
112.00000000000000000000, 0.00000000000000000000, 4101.53836124277500000000, 4747.17937109581910000000, 4308.71784335606300000000, 4635.89732253496910000000, 4309.23066385634320000000, 4833.33321514292950000000, 4279.48707484007900000000, 4300.51271535157590000000, 4555.89732449122400000000, 4922.05116169144180000000, 4489.74347995505010000000, 4320.51271486251240000000, 4519.48706897131430000000, 4341.53835537400940000000, 470.00000000000000000000, 4.00000000000000000000, 4.00000000000000000000, 4.00000000000000000000, 4.00000000000000000000, 4.00000000000000000000, 4.00000000000000000000, 0.00000000000000000000, 0.00000000000000000000, 4.00000000000000000000, 4.00000000000000000000, 4.00000000000000000000, 4.00000000000000000000, 4.00000000000000000000, 4.00000000000000000000, 4.00000000000000000000, 4.00000000000000000000, 1667.00000000000000000000, 1687.00000000000000000000, 0.00000000000000000000
113.00000000000000000000, 0.00000000000000000000, 4104.61528424445710000000, 4750.76911459778240000000, 4309.74348435662340000000, 4641.02552753777310000000, 4309.74348435662340000000, 4831.79475364208790000000, 4280.51271584064030000000, 4297.43579234989370000000, 4563.07681149514970000000, 4923.58962319228250000000, 4491.28194145589170000000, 4323.07681736391440000000, 4525.12809447439850000000, 4341.53835537400940000000, 458.00000000000000000000, 4.00000000000000000000, 4.00000000000000000000, 4.00000000000000000000, 4.00000000000000000000, 4.00000000000000000000, 4.00000000000000000000, 0.00000000000000000000, 0.00000000000000000000, 4.00000000000000000000, 4.00000000000000000000, 4.00000000000000000000, 4.00000000000000000000, 4.00000000000000000000, 4.00000000000000000000, 4.00000000000000000000, 4.00000000000000000000, 1667.00000000000000000000, 1687.00000000000000000000, 0.00000000000000000000
114.00000000000000000000, 0.00000000000000000000, 4105.64092524501760000000, 4754.35885809974570000000, 4310.25630485690450000000, 4644.61527103973640000000, 4317.43579186083020000000, 4829.23065114068590000000, 4281.53835684120080000000, 4300.51271535157590000000, 4565.12809349627150000000, 4929.74346919564780000000, 4490.25630045533030000000, 4318.97425336167090000000, 4528.71783797636180000000, 4342.05117587429050000000, 475.00000000000000000000, 4.00000000000000000000, 4.00000000000000000000, 4.00000000000000000000, 4.00000000000000000000, 4.00000000000000000000, 4.00000000000000000000, 0.00000000000000000000, 0.00000000000000000000, 4.00000000000000000000, 4.00000000000000000000, 4.00000000000000000000, 4.00000000000000000000, 4.00000000000000000000, 4.00000000000000000000, 4.00000000000000000000, 4.00000000000000000000, 1667.00000000000000000000, 1686.00000000000000000000, 0.00000000000000000000
115.00000000000000000000, 0.00000000000000000000, 4104.61528424445710000000, 4752.30757609862390000000, 4309.74348435662340000000, 4644.10245053945530000000, 4318.97425336167090000000, 4830.76911264152750000000, 4282.05117734148100000000, 4298.97425385073530000000, 4557.43578599206560000000, 4925.64090519340430000000, 4488.71783895448970000000, 4313.33322785858670000000, 4524.10245347383810000000, 4338.97425287260740000000, 473.00000000000000000000, 4.00000000000000000000, 4.00000000000000000000, 4.00000000000000000000, 4.00000000000000000000, 4.00000000000000000000, 4.00000000000000000000, 0.00000000000000000000, 0.00000000000000000000, 4.00000000000000000000, 4.00000000000000000000, 4.00000000000000000000, 4.00000000000000000000, 4.00000000000000000000, 4.00000000000000000000, 4.00000000000000000000, 4.00000000000000000000, 1667.00000000000000000000, 1687.00000000000000000000, 0.00000000000000000000
116.00000000000000000000, 0.00000000000000000000, 4105.64092524501760000000, 4753.33321709918440000000, 4307.17938185522140000000, 4644.10245053945530000000, 4316.41015086026890000000, 4833.84603564320970000000, 4283.07681834204230000000, 4294.35886934821160000000, 4549.23065798757850000000, 4917.43577718891810000000, 4487.69219795392840000000, 4309.74348435662340000000, 4521.02553047215590000000, 4333.33322736952320000000, 470.00000000000000000000, 4.00000000000000000000, 4.00000000000000000000, 4.00000000000000000000, 4.00000000000000000000, 4.00000000000000000000, 4.00000000000000000000, 0.00000000000000000000, 0.00000000000000000000, 4.00000000000000000000, 4.00000000000000000000, 4.00000000000000000000, 4.00000000000000000000, 4.00000000000000000000, 4.00000000000000000000, 4.00000000000000000000, 4.00000000000000000000, 1667.00000000000000000000, 1685.00000000000000000000, 0.00000000000000000000
117.00000000000000000000, 0.00000000000000000000, 4108.20502774641950000000, 4762.56398610423180000000, 4307.69220235550260000000, 4647.69219404141860000000, 4317.43579186083020000000, 4830.76911264152750000000, 4281.53835684120080000000, 4296.92297184961350000000, 4552.30758098926070000000, 4921.53834119116160000000, 4488.71783895448970000000, 4312.82040735830650000000, 4519.99988947159450000000, 4334.35886837008370000000, 458.00000000000000000000, 4.00000000000000000000, 4.00000000000000000000, 4.00000000000000000000, 4.00000000000000000000, 4.00000000000000000000, 4.00000000000000000000, 0.00000000000000000000, 0.00000000000000000000, 4.00000000000000000000, 4.00000000000000000000, 4.00000000000000000000, 4.00000000000000000000, 4.00000000000000000000, 4.00000000000000000000, 4.00000000000000000000, 4.00000000000000000000, 1666.00000000000000000000, 1688.00000000000000000000, 0.00000000000000000000
118.00000000000000000000, 0.00000000000000000000, 4108.71784824670070000000, 4762.56398610423180000000, 4310.25630485690450000000, 4648.71783504197900000000, 4316.41015086026890000000, 4828.20501014012550000000, 4278.97425433979880000000, 4299.48707435101550000000, 4565.12809349627150000000, 4929.74346919564780000000, 4493.33322345701340000000, 4319.99989436223220000000, 4520.51270997187480000000, 4336.41015037120540000000, 475.00000000000000000000, 4.00000000000000000000, 4.00000000000000000000, 4.00000000000000000000, 4.00000000000000000000, 4.00000000000000000000, 4.00000000000000000000, 0.00000000000000000000, 0.00000000000000000000, 4.00000000000000000000, 4.00000000000000000000, 4.00000000000000000000, 4.00000000000000000000, 4.00000000000000000000, 4.00000000000000000000, 4.00000000000000000000, 4.00000000000000000000, 1667.00000000000000000000, 1686.00000000000000000000, 0.00000000000000000000
119.00000000000000000000, 0.00000000000000000000, 4107.17938674585910000000, 4750.76911459778240000000, 4304.10245885353920000000, 4639.48706603693150000000, 4315.89733035998870000000, 4831.28193314180770000000, 4280.51271584064030000000, 4296.41015134933330000000, 4564.10245249571020000000, 4927.17936669424580000000, 4494.87168495785410000000, 4319.99989436223220000000, 4528.71783797636180000000, 4332.82040686924300000000, 473.00000000000000000000, 4.00000000000000000000, 4.00000000000000000000, 4.00000000000000000000, 4.00000000000000000000, 4.00000000000000000000, 4.00000000000000000000, 0.00000000000000000000, 0.00000000000000000000, 4.00000000000000000000, 4.00000000000000000000, 4.00000000000000000000, 4.00000000000000000000, 4.00000000000000000000, 4.00000000000000000000, 4.00000000000000000000, 4.00000000000000000000, 1666.00000000000000000000, 1686.00000000000000000000, 0.00000000000000000000
120.00000000000000000000, 0.00000000000000000000, 4105.12810474473740000000, 4745.64090959497840000000, 4294.87168984849180000000, 4635.89732253496910000000, 4318.46143286139070000000, 4831.79475364208790000000, 4280.51271584064030000000, 4297.43579234989370000000, 4552.30758098926070000000, 4918.97423868975870000000, 4491.28194145589170000000, 4311.79476635774520000000, 4529.23065847664200000000, 4329.74348386755990000000, 470.00000000000000000000, 4.00000000000000000000, 4.00000000000000000000, 4.00000000000000000000, 4.00000000000000000000, 4.00000000000000000000, 4.00000000000000000000, 0.00000000000000000000, 0.00000000000000000000, 4.00000000000000000000, 4.00000000000000000000, 4.00000000000000000000, 4.00000000000000000000, 4.00000000000000000000, 4.00000000000000000000, 4.00000000000000000000, 4.00000000000000000000, 1667.00000000000000000000, 1686.00000000000000000000, 0.00000000000000000000
121.00000000000000000000, 0.00000000000000000000, 4103.07682274361560000000, 4754.87167860002590000000, 4297.94861285017400000000, 4643.07680953889480000000, 4319.48707386195200000000, 4828.71783064040570000000, 4279.48707484007900000000, 4298.46143335045510000000, 4558.46142699262600000000, 4924.10244369256360000000, 4489.23065945476990000000, 4309.23066385634320000000, 4519.48706897131430000000, 4331.28194536840150000000, 458.00000000000000000000, 4.00000000000000000000, 4.00000000000000000000, 4.00000000000000000000, 4.00000000000000000000, 4.00000000000000000000, 4.00000000000000000000, 0.00000000000000000000, 0.00000000000000000000, 4.00000000000000000000, 4.00000000000000000000, 4.00000000000000000000, 4.00000000000000000000, 4.00000000000000000000, 4.00000000000000000000, 4.00000000000000000000, 4.00000000000000000000, 1665.00000000000000000000, 1685.00000000000000000000, 0.00000000000000000000
122.00000000000000000000, 0.00000000000000000000, 4104.10246374417690000000, 4756.41014010086660000000, 4306.66656135494120000000, 4641.02552753777310000000, 4318.46143286139070000000, 4833.33321514292950000000, 4282.56399784176210000000, 4297.94861285017400000000, 4568.71783699823390000000, 4933.33321269761110000000, 4491.28194145589170000000, 4317.43579186083020000000, 4521.02553047215590000000, 4335.89732987092520000000, 475.00000000000000000000, 4.00000000000000000000, 4.00000000000000000000, 4.00000000000000000000, 4.00000000000000000000, 4.00000000000000000000, 4.00000000000000000000, 0.00000000000000000000, 0.00000000000000000000, 4.00000000000000000000, 4.00000000000000000000, 4.00000000000000000000, 4.00000000000000000000, 4.00000000000000000000, 4.00000000000000000000, 4.00000000000000000000, 4.00000000000000000000, 1666.00000000000000000000, 1687.00000000000000000000, 0.00000000000000000000
123.00000000000000000000, 0.00000000000000000000, 4107.69220724613930000000, 4750.76911459778240000000, 4309.23066385634320000000, 4635.38450203468890000000, 4321.02553536279270000000, 4839.99988164657500000000, 4282.56399784176210000000, 4296.92297184961350000000, 4557.94860649234580000000, 4928.71782819508730000000, 4493.33322345701340000000, 4319.99989436223220000000, 4530.25629947720340000000, 4339.99989387316870000000, 473.00000000000000000000, 4.00000000000000000000, 4.00000000000000000000, 4.00000000000000000000, 4.00000000000000000000, 4.00000000000000000000, 4.00000000000000000000, 0.00000000000000000000, 0.00000000000000000000, 4.00000000000000000000, 4.00000000000000000000, 4.00000000000000000000, 4.00000000000000000000, 4.00000000000000000000, 4.00000000000000000000, 4.00000000000000000000, 4.00000000000000000000, 1667.00000000000000000000, 1686.00000000000000000000, 0.00000000000000000000
124.00000000000000000000, 0.00000000000000000000, 4107.17938674585910000000, 4755.38449910030610000000, 4309.23066385634320000000, 4638.97424553665130000000, 4321.53835586307380000000, 4833.84603564320970000000, 4280.51271584064030000000, 4296.92297184961350000000, 4551.28193998870030000000, 4922.56398219172210000000, 4492.82040295673230000000, 4317.43579186083020000000, 4528.71783797636180000000, 4341.53835537400940000000, 470.00000000000000000000, 4.00000000000000000000, 4.00000000000000000000, 4.00000000000000000000, 4.00000000000000000000, 4.00000000000000000000, 4.00000000000000000000, 0.00000000000000000000, 0.00000000000000000000, 4.00000000000000000000, 4.00000000000000000000, 4.00000000000000000000, 4.00000000000000000000, 4.00000000000000000000, 4.00000000000000000000, 4.00000000000000000000, 4.00000000000000000000, 1665.00000000000000000000, 1686.00000000000000000000, 0.00000000000000000000
125.00000000000000000000, 0.00000000000000000000, 4110.25630974754130000000, 4761.53834510367140000000, 4310.76912535718470000000, 4644.61527103973640000000, 4317.94861236111050000000, 4827.17936913956420000000, 4283.58963884232250000000, 4297.43579234989370000000, 4556.92296549178450000000, 4926.15372569368540000000, 4492.82040295673230000000, 4319.48707386195200000000, 4522.56399197299650000000, 4342.56399637457070000000, 458.00000000000000000000, 4.00000000000000000000, 4.00000000000000000000, 4.00000000000000000000, 4.00000000000000000000, 4.00000000000000000000, 4.00000000000000000000, 0.00000000000000000000, 0.00000000000000000000, 4.00000000000000000000, 4.00000000000000000000, 4.00000000000000000000, 4.00000000000000000000, 4.00000000000000000000, 4.00000000000000000000, 4.00000000000000000000, 4.00000000000000000000, 1665.00000000000000000000, 1685.00000000000000000000, 0.00000000000000000000
126.00000000000000000000, 0.00000000000000000000, 4117.43579675146700000000, 4764.61526810535360000000, 4311.79476635774520000000, 4647.17937354113840000000, 4320.51271486251240000000, 4829.23065114068590000000, 4284.10245934260270000000, 4296.41015134933330000000, 4561.02552949402800000000, 4925.12808469312400000000, 4491.28194145589170000000, 4322.05117636335400000000, 4522.05117147271630000000, 4343.58963737513110000000, 475.00000000000000000000, 4.00000000000000000000, 4.00000000000000000000, 4.00000000000000000000, 4.00000000000000000000, 4.00000000000000000000, 4.00000000000000000000, 0.00000000000000000000, 0.00000000000000000000, 4.00000000000000000000, 4.00000000000000000000, 4.00000000000000000000, 4.00000000000000000000, 4.00000000000000000000, 4.00000000000000000000, 4.00000000000000000000, 4.00000000000000000000, 1665.00000000000000000000, 1685.00000000000000000000, 0.00000000000000000000
127.00000000000000000000, 0.00000000000000000000, 4118.97425825230860000000, 4767.69219110703580000000, 4311.28194585746500000000, 4648.71783504197900000000, 4323.07681736391440000000, 4830.76911264152750000000, 4279.48707484007900000000, 4297.43579234989370000000, 4567.17937549739330000000, 4924.61526419284380000000, 4493.33322345701340000000, 4323.07681736391440000000, 4529.74347897692220000000, 4343.58963737513110000000, 473.00000000000000000000, 4.00000000000000000000, 4.00000000000000000000, 4.00000000000000000000, 4.00000000000000000000, 4.00000000000000000000, 4.00000000000000000000, 0.00000000000000000000, 0.00000000000000000000, 4.00000000000000000000, 4.00000000000000000000, 4.00000000000000000000, 4.00000000000000000000, 4.00000000000000000000, 4.00000000000000000000, 4.00000000000000000000, 4.00000000000000000000, 1665.00000000000000000000, 1686.00000000000000000000, 0.00000000000000000000
128.00000000000000000000, 0.00000000000000000000, 4113.33323274922440000000, 4761.53834510367140000000, 4310.76912535718470000000, 4641.02552753777310000000, 4319.99989436223220000000, 4830.25629214124730000000, 4279.99989534035920000000, 4298.46143335045510000000, 4569.74347799879520000000, 4930.76911019620910000000, 4494.35886445757390000000, 4319.99989436223220000000, 4535.89732498028750000000, 4341.53835537400940000000, 470.00000000000000000000, 4.00000000000000000000, 4.00000000000000000000, 4.00000000000000000000, 4.00000000000000000000, 4.00000000000000000000, 4.00000000000000000000, 0.00000000000000000000, 0.00000000000000000000, 4.00000000000000000000, 4.00000000000000000000, 4.00000000000000000000, 4.00000000000000000000, 4.00000000000000000000, 4.00000000000000000000, 4.00000000000000000000, 4.00000000000000000000, 1666.00000000000000000000, 1686.00000000000000000000, 0.00000000000000000000
0.00000000000000000000, 0.00000000000000000000, 4107.17938674585910000000, 4754.35885809974570000000, 4308.20502285578280000000, 4634.35886103412760000000, 4318.97425336167090000000, 4829.23065114068590000000, 4282.56399784176210000000, 4299.99989485129570000000, 4562.05117049458930000000, 4931.28193069648930000000, 4490.25630045533030000000, 4313.84604835886690000000, 4529.23065847664200000000, 4338.46143237232720000000, 457.00000000000000000000, 4.00000000000000000000, 4.00000000000000000000, 4.00000000000000000000, 4.00000000000000000000, 4.00000000000000000000, 4.00000000000000000000, 0.00000000000000000000, 0.00000000000000000000, 4.00000000000000000000, 4.00000000000000000000, 4.00000000000000000000, 4.00000000000000000000, 4.00000000000000000000, 4.00000000000000000000, 4.00000000000000000000, 4.00000000000000000000, 1665.00000000000000000000, 1686.00000000000000000000, 0.00000000000000000000
1.00000000000000000000, 0.00000000000000000000, 4106.15374574529870000000, 4759.48706310254970000000, 4307.17938185522140000000, 4642.05116853833440000000, 4324.10245836447580000000, 4829.74347164096620000000, 4279.99989534035920000000, 4300.51271535157590000000, 4566.15373449683190000000, 4928.71782819508730000000, 4497.43578745925610000000, 4316.41015086026890000000, 4521.53835097243610000000, 4339.48707337288760000000, 483.00000000000000000000, 4.00000000000000000000, 4.00000000000000000000, 4.00000000000000000000, 4.00000000000000000000, 4.00000000000000000000, 4.00000000000000000000, 0.00000000000000000000, 0.00000000000000000000, 4.00000000000000000000, 4.00000000000000000000, 4.00000000000000000000, 4.00000000000000000000, 4.00000000000000000000, 4.00000000000000000000, 4.00000000000000000000, 4.00000000000000000000, 1665.00000000000000000000, 1687.00000000000000000000, 0.00000000000000000000
2.00000000000000000000, 0.00000000000000000000, 4113.33323274922440000000, 4765.64090910591400000000, 4312.30758685802630000000, 4649.74347604254040000000, 4326.66656086587770000000, 4838.97424064601360000000, 4278.97425433979880000000, 4298.97425385073530000000, 4575.38450350187940000000, 4932.82039219733000000000, 4507.69219746486490000000, 4326.15374036559750000000, 4525.64091497467960000000, 4344.10245787541130000000, 500.00000000000000000000, 4.00000000000000000000, 4.00000000000000000000, 4.00000000000000000000, 4.00000000000000000000, 4.00000000000000000000, 4.00000000000000000000, 0.00000000000000000000, 0.00000000000000000000, 4.00000000000000000000, 4.00000000000000000000, 4.00000000000000000000, 4.00000000000000000000, 4.00000000000000000000, 4.00000000000000000000, 4.00000000000000000000, 4.00000000000000000000, 1665.00000000000000000000, 1687.00000000000000000000, 0.00000000000000000000
3.00000000000000000000, 0.00000000000000000000, 4122.05118125399170000000, 4765.64090910591400000000, 4318.46143286139070000000, 4648.20501454169880000000, 4325.12809936503620000000, 4846.66654815022050000000, 4279.48707484007900000000, 4297.94861285017400000000, 4568.20501649795370000000, 4933.84603319789130000000, 4497.94860795953720000000, 4327.17938136615790000000, 4531.79476097804400000000, 4347.69220137737470000000, 507.00000000000000000000, 4.00000000000000000000, 4.00000000000000000000, 4.00000000000000000000, 4.00000000000000000000, 4.00000000000000000000, 4.00000000000000000000, 0.00000000000000000000, 0.00000000000000000000, 4.00000000000000000000, 4.00000000000000000000, 4.00000000000000000000, 4.00000000000000000000, 4.00000000000000000000, 4.00000000000000000000, 4.00000000000000000000, 4.00000000000000000000, 1667.00000000000000000000, 1687.00000000000000000000, 0.00000000000000000000
4.00000000000000000000, 0.00000000000000000000, 4123.58964275483230000000, 4766.66655010647540000000, 4319.99989436223220000000, 4645.64091204029680000000, 4328.71784286699950000000, 4842.05116364769670000000, 4280.51271584064030000000, 4296.92297184961350000000, 4566.15373449683190000000, 4927.17936669424580000000, 4492.30758245645210000000, 4327.69220186643820000000, 4530.76911997748360000000, 4351.28194487933800000000, 525.00000000000000000000, 4.00000000000000000000, 4.00000000000000000000, 4.00000000000000000000, 4.00000000000000000000, 4.00000000000000000000, 4.00000000000000000000, 0.00000000000000000000, 0.00000000000000000000, 4.00000000000000000000, 4.00000000000000000000, 4.00000000000000000000, 4.00000000000000000000, 4.00000000000000000000, 4.00000000000000000000, 4.00000000000000000000, 4.00000000000000000000, 1667.00000000000000000000, 1686.00000000000000000000, 0.00000000000000000000
5.00000000000000000000, 0.00000000000000000000, 4123.07682225455210000000, 4767.17937060675560000000, 4321.02553536279270000000, 4647.69219404141860000000, 4333.33322736952320000000, 4842.05116364769670000000, 4279.99989534035920000000, 4298.97425385073530000000, 4581.02552900496450000000, 4929.23064869536760000000, 4507.69219746486490000000, 4336.41015037120540000000, 4531.28194047776380000000, 4358.46143188326370000000, 495.00000000000000000000, 4.00000000000000000000, 4.00000000000000000000, 4.00000000000000000000, 4.00000000000000000000, 4.00000000000000000000, 4.00000000000000000000, 0.00000000000000000000, 0.00000000000000000000, 4.00000000000000000000, 4.00000000000000000000, 4.00000000000000000000, 4.00000000000000000000, 4.00000000000000000000, 4.00000000000000000000, 4.00000000000000000000, 4.00000000000000000000, 1668.00000000000000000000, 1688.00000000000000000000, 0.00000000000000000000
6.00000000000000000000, 0.00000000000000000000, 4124.10246325511250000000, 4772.30757560955950000000, 4321.53835586307380000000, 4646.66655304085820000000, 4331.28194536840150000000, 4845.64090714965910000000, 4279.48707484007900000000, 4300.51271535157590000000, 4584.61527250692690000000, 4938.97423820069530000000, 4508.71783846542530000000, 4335.89732987092520000000, 4539.48706848225080000000, 4356.92297038242210000000, 0.00000000000000000000, 4.00000000000000000000, 4.00000000000000000000, 4.00000000000000000000, 4.00000000000000000000, 4.00000000000000000000, 4.00000000000000000000, 0.00000000000000000000, 0.00000000000000000000, 4.00000000000000000000, 4.00000000000000000000, 4.00000000000000000000, 4.00000000000000000000, 4.00000000000000000000, 4.00000000000000000000, 4.00000000000000000000, 4.00000000000000000000, 1668.00000000000000000000, 1687.00000000000000000000, 0.00000000000000000000
7.00000000000000000000, 0.00000000000000000000, 4118.97425825230860000000, 4779.99988311376640000000, 4315.89733035998870000000, 4639.99988653721270000000, 4326.15374036559750000000, 4841.53834314741650000000, 4279.48707484007900000000, 4298.46143335045510000000, 4569.74347799879520000000, 4929.74346919564780000000, 4492.30758245645210000000, 4326.15374036559750000000, 4540.51270948281130000000, 4343.58963737513110000000, 0.00000000000000000000, 4.00000000000000000000, 4.00000000000000000000, 4.00000000000000000000, 4.00000000000000000000, 4.00000000000000000000, 4.00000000000000000000, 0.00000000000000000000, 0.00000000000000000000, 4.00000000000000000000, 4.00000000000000000000, 4.00000000000000000000, 4.00000000000000000000, 4.00000000000000000000, 4.00000000000000000000, 4.00000000000000000000, 4.00000000000000000000, 1667.00000000000000000000, 1688.00000000000000000000, 0.00000000000000000000
8.00000000000000000000, 0.00000000000000000000, 4115.38451475034620000000, 4778.97424211320500000000, 4308.71784335606300000000, 4639.48706603693150000000, 4321.02553536279270000000, 4841.02552264713540000000, 4280.51271584064030000000, 4298.97425385073530000000, 4561.53834999430820000000, 4909.23064918443110000000, 4486.15373645308680000000, 4324.10245836447580000000, 4524.61527397411830000000, 4339.99989387316870000000, 465.00000000000000000000, 4.00000000000000000000, 4.00000000000000000000, 4.00000000000000000000, 4.00000000000000000000, 4.00000000000000000000, 4.00000000000000000000, 0.00000000000000000000, 0.00000000000000000000, 4.00000000000000000000, 4.00000000000000000000, 4.00000000000000000000, 4.00000000000000000000, 4.00000000000000000000, 4.00000000000000000000, 4.00000000000000000000, 4.00000000000000000000, 1669.00000000000000000000, 1687.00000000000000000000, 0.00000000000000000000
9.00000000000000000000, 0.00000000000000000000, 4117.94861725174810000000, 4776.92296011208330000000, 4308.71784335606300000000, 4643.07680953889480000000, 4322.05117636335400000000, 4845.12808664937890000000, 4279.99989534035920000000, 4298.97425385073530000000, 4566.15373449683190000000, 4914.35885418723500000000, 4488.20501845420860000000, 4326.66656086587770000000, 4516.41014596963210000000, 4348.71784237793510000000, 442.00000000000000000000, 4.00000000000000000000, 4.00000000000000000000, 4.00000000000000000000, 4.00000000000000000000, 4.00000000000000000000, 4.00000000000000000000, 0.00000000000000000000, 0.00000000000000000000, 4.00000000000000000000, 4.00000000000000000000, 4.00000000000000000000, 4.00000000000000000000, 4.00000000000000000000, 4.00000000000000000000, 4.00000000000000000000, 4.00000000000000000000, 1668.00000000000000000000, 1688.00000000000000000000, 0.00000000000000000000
10.00000000000000000000, 0.00000000000000000000, 4115.38451475034620000000, 4781.53834461460700000000, 4310.25630485690450000000, 4638.46142503637110000000, 4327.17938136615790000000, 4842.05116364769670000000, 4278.46143383951860000000, 4297.94861285017400000000, 4578.46142650356250000000, 4936.41013569929330000000, 4493.33322345701340000000, 4327.17938136615790000000, 4529.23065847664200000000, 4352.82040638017860000000, 475.00000000000000000000, 4.00000000000000000000, 4.00000000000000000000, 4.00000000000000000000, 4.00000000000000000000, 4.00000000000000000000, 4.00000000000000000000, 0.00000000000000000000, 0.00000000000000000000, 4.00000000000000000000, 4.00000000000000000000, 4.00000000000000000000, 4.00000000000000000000, 4.00000000000000000000, 4.00000000000000000000, 4.00000000000000000000, 4.00000000000000000000, 1669.00000000000000000000, 1688.00000000000000000000, 0.00000000000000000000
11.00000000000000000000, 0.00000000000000000000, 4114.35887374978480000000, 4783.07680611544860000000, 4310.25630485690450000000, 4633.84604053384740000000, 4328.20502236671840000000, 4839.99988164657500000000, 4279.99989534035920000000, 4296.92297184961350000000, 4590.25629801001200000000, 4941.02552020181700000000, 4506.15373596402330000000, 4331.28194536840150000000, 4540.51270948281130000000, 4352.82040638017860000000, 473.00000000000000000000, 4.00000000000000000000, 4.00000000000000000000, 4.00000000000000000000, 4.00000000000000000000, 4.00000000000000000000, 4.00000000000000000000, 0.00000000000000000000, 0.00000000000000000000, 4.00000000000000000000, 4.00000000000000000000, 4.00000000000000000000, 4.00000000000000000000, 4.00000000000000000000, 4.00000000000000000000, 4.00000000000000000000, 4.00000000000000000000, 1669.00000000000000000000, 1688.00000000000000000000, 0.00000000000000000000
12.00000000000000000000, 0.00000000000000000000, 4119.48707875258880000000, 4784.10244711600990000000, 4311.28194585746500000000, 4638.97424553665130000000, 4324.61527886475600000000, 4842.56398414797700000000, 4281.02553634092060000000, 4295.89733084905220000000, 4581.02552900496450000000, 4935.89731519901310000000, 4512.82040246766880000000, 4332.82040686924300000000, 4542.56399148393300000000, 4352.30758587989840000000, 470.00000000000000000000, 4.00000000000000000000, 4.00000000000000000000, 4.00000000000000000000, 4.00000000000000000000, 4.00000000000000000000, 4.00000000000000000000, 0.00000000000000000000, 0.00000000000000000000, 4.00000000000000000000, 4.00000000000000000000, 4.00000000000000000000, 4.00000000000000000000, 4.00000000000000000000, 4.00000000000000000000, 4.00000000000000000000, 4.00000000000000000000, 1669.00000000000000000000, 1689.00000000000000000000, 0.00000000000000000000
13.00000000000000000000, 0.00000000000000000000, 4116.41015575090660000000, 4784.10244711600990000000, 4311.28194585746500000000, 4643.07680953889480000000, 4324.61527886475600000000, 4843.07680464825720000000, 4280.51271584064030000000, 4295.89733084905220000000, 4568.20501649795370000000, 4934.87167419845170000000, 4504.10245396290160000000, 4327.17938136615790000000, 4537.43578648112910000000, 4346.66656037681420000000, 458.00000000000000000000, 4.00000000000000000000, 4.00000000000000000000, 4.00000000000000000000, 4.00000000000000000000, 4.00000000000000000000, 4.00000000000000000000, 0.00000000000000000000, 0.00000000000000000000, 4.00000000000000000000, 4.00000000000000000000, 4.00000000000000000000, 4.00000000000000000000, 4.00000000000000000000, 4.00000000000000000000, 4.00000000000000000000, 4.00000000000000000000, 1669.00000000000000000000, 1689.00000000000000000000, 0.00000000000000000000
14.00000000000000000000, 0.00000000000000000000, 4106.15374574529870000000, 4783.07680611544860000000, 4305.12809985409970000000, 4637.43578403580980000000, 4327.69220186643820000000, 4839.99988164657500000000, 4278.97425433979880000000, 4297.94861285017400000000, 4572.82040100047740000000, 4930.25628969592800000000, 4494.87168495785410000000, 4319.48707386195200000000, 4523.07681247327760000000, 4338.46143237232720000000, 475.00000000000000000000, 4.00000000000000000000, 4.00000000000000000000, 4.00000000000000000000, 4.00000000000000000000, 4.00000000000000000000, 4.00000000000000000000, 0.00000000000000000000, 0.00000000000000000000, 4.00000000000000000000, 4.00000000000000000000, 4.00000000000000000000, 4.00000000000000000000, 4.00000000000000000000, 4.00000000000000000000, 4.00000000000000000000, 4.00000000000000000000, 1669.00000000000000000000, 1688.00000000000000000000, 0.00000000000000000000
15.00000000000000000000, 0.00000000000000000000, 4103.07682274361560000000, 4783.07680611544860000000, 4297.94861285017400000000, 4630.25629703188410000000, 4325.64091986531640000000, 4833.33321514292950000000, 4278.97425433979880000000, 4297.94861285017400000000, 4574.35886250131900000000, 4923.07680269200230000000, 4491.28194145589170000000, 4312.30758685802630000000, 4517.94860747047280000000, 4333.33322736952320000000, 473.00000000000000000000, 4.00000000000000000000, 4.00000000000000000000, 4.00000000000000000000, 4.00000000000000000000, 4.00000000000000000000, 4.00000000000000000000, 0.00000000000000000000, 0.00000000000000000000, 4.00000000000000000000, 4.00000000000000000000, 4.00000000000000000000, 4.00000000000000000000, 4.00000000000000000000, 4.00000000000000000000, 4.00000000000000000000, 4.00000000000000000000, 1669.00000000000000000000, 1688.00000000000000000000, 0.00000000000000000000
16.00000000000000000000, 0.00000000000000000000, 4105.64092524501760000000, 4784.61526761629010000000, 4295.38451034877200000000, 4632.30757903300580000000, 4324.10245836447580000000, 4831.79475364208790000000, 4282.56399784176210000000, 4295.38451034877200000000, 4568.71783699823390000000, 4927.17936669424580000000, 4489.23065945476990000000, 4312.82040735830650000000, 4526.66655597524000000000, 4334.87168887036390000000, 0.00000000000000000000, 4.00000000000000000000, 4.00000000000000000000, 4.00000000000000000000, 4.00000000000000000000, 4.00000000000000000000, 4.00000000000000000000, 0.00000000000000000000, 0.00000000000000000000, 4.00000000000000000000, 4.00000000000000000000, 4.00000000000000000000, 4.00000000000000000000, 4.00000000000000000000, 4.00000000000000000000, 4.00000000000000000000, 4.00000000000000000000, 1669.00000000000000000000, 1689.00000000000000000000, 0.00000000000000000000
17.00000000000000000000, 0.00000000000000000000, 4106.15374574529870000000, 4787.69219061797230000000, 4295.38451034877200000000, 4633.84604053384740000000, 4327.69220186643820000000, 4840.51270214685520000000, 4283.58963884232250000000, 4296.41015134933330000000, 4573.84604200103880000000, 4935.89731519901310000000, 4489.74347995505010000000, 4319.99989436223220000000, 4527.17937647552030000000, 4339.48707337288760000000, 0.00000000000000000000, 4.00000000000000000000, 4.00000000000000000000, 4.00000000000000000000, 4.00000000000000000000, 4.00000000000000000000, 4.00000000000000000000, 0.00000000000000000000, 0.00000000000000000000, 4.00000000000000000000, 4.00000000000000000000, 4.00000000000000000000, 4.00000000000000000000, 4.00000000000000000000, 4.00000000000000000000, 4.00000000000000000000, 4.00000000000000000000, 1669.00000000000000000000, 1688.00000000000000000000, 0.00000000000000000000
18.00000000000000000000, 0.00000000000000000000, 4107.69220724613930000000, 4790.25629311937430000000, 4295.38451034877200000000, 4628.71783553104340000000, 4330.76912486812130000000, 4843.07680464825720000000, 4281.53835684120080000000, 4297.43579234989370000000, 4573.84604200103880000000, 4927.17936669424580000000, 4494.35886445757390000000, 4319.99989436223220000000, 4523.07681247327760000000, 4341.53835537400940000000, 0.00000000000000000000, 4.00000000000000000000, 4.00000000000000000000, 4.00000000000000000000, 4.00000000000000000000, 4.00000000000000000000, 4.00000000000000000000, 0.00000000000000000000, 0.00000000000000000000, 4.00000000000000000000, 4.00000000000000000000, 4.00000000000000000000, 4.00000000000000000000, 4.00000000000000000000, 4.00000000000000000000, 4.00000000000000000000, 4.00000000000000000000, 1668.00000000000000000000, 1689.00000000000000000000, 0.00000000000000000000
19.00000000000000000000, 0.00000000000000000000, 4108.20502774641950000000, 4787.17937011769210000000, 4297.43579234989370000000, 4631.28193803244540000000, 4326.66656086587770000000, 4832.82039464264930000000, 4280.51271584064030000000, 4296.92297184961350000000, 4558.46142699262600000000, 4908.71782868415080000000, 4487.69219795392840000000, 4311.79476635774520000000, 4519.99988947159450000000, 4342.05117587429050000000, 0.00000000000000000000, 4.00000000000000000000, 4.00000000000000000000, 4.00000000000000000000, 4.00000000000000000000, 4.00000000000000000000, 4.00000000000000000000, 0.00000000000000000000, 0.00000000000000000000, 4.00000000000000000000, 4.00000000000000000000, 4.00000000000000000000, 4.00000000000000000000, 4.00000000000000000000, 4.00000000000000000000, 4.00000000000000000000, 4.00000000000000000000, 1670.00000000000000000000, 1688.00000000000000000000, 0.00000000000000000000
20.00000000000000000000, 0.00000000000000000000, 4106.66656624557890000000, 4783.58962661572880000000, 4297.94861285017400000000, 4638.46142503637110000000, 4322.05117636335400000000, 4827.69218963984530000000, 4280.51271584064030000000, 4295.89733084905220000000, 4548.71783748729830000000, 4904.10244418162710000000, 4474.35886494663740000000, 4308.20502285578280000000, 4511.79476146710840000000, 4335.38450937064500000000, 0.00000000000000000000, 4.00000000000000000000, 4.00000000000000000000, 4.00000000000000000000, 4.00000000000000000000, 4.00000000000000000000, 4.00000000000000000000, 0.00000000000000000000, 0.00000000000000000000, 4.00000000000000000000, 4.00000000000000000000, 4.00000000000000000000, 4.00000000000000000000, 4.00000000000000000000, 4.00000000000000000000, 4.00000000000000000000, 4.00000000000000000000, 1668.00000000000000000000, 1688.00000000000000000000, 0.00000000000000000000
21.00000000000000000000, 0.00000000000000000000, 4105.12810474473740000000, 4780.51270361404660000000, 4294.35886934821160000000, 4634.87168153440780000000, 4322.05117636335400000000, 4828.20501014012550000000, 4279.99989534035920000000, 4295.89733084905220000000, 4550.76911948842010000000, 4907.17936718330930000000, 4470.25630094439480000000, 4307.17938185522140000000, 4504.61527446318270000000, 4325.12809936503620000000, 0.00000000000000000000, 4.00000000000000000000, 4.00000000000000000000, 4.00000000000000000000, 4.00000000000000000000, 4.00000000000000000000, 4.00000000000000000000, 0.00000000000000000000, 0.00000000000000000000, 4.00000000000000000000, 4.00000000000000000000, 4.00000000000000000000, 4.00000000000000000000, 4.00000000000000000000, 4.00000000000000000000, 4.00000000000000000000, 4.00000000000000000000, 1669.00000000000000000000, 1689.00000000000000000000, 0.00000000000000000000
22.00000000000000000000, 0.00000000000000000000, 4105.64092524501760000000, 4781.02552411432680000000, 4292.30758734708980000000, 4629.74347653160380000000, 4323.58963786419460000000, 4829.74347164096620000000, 4280.51271584064030000000, 4296.92297184961350000000, 4557.94860649234580000000, 4910.76911068527260000000, 4474.35886494663740000000, 4307.69220235550260000000, 4502.56399246206090000000, 4326.15374036559750000000, 0.00000000000000000000, 4.00000000000000000000, 4.00000000000000000000, 4.00000000000000000000, 4.00000000000000000000, 4.00000000000000000000, 4.00000000000000000000, 0.00000000000000000000, 0.00000000000000000000, 4.00000000000000000000, 4.00000000000000000000, 4.00000000000000000000, 4.00000000000000000000, 4.00000000000000000000, 4.00000000000000000000, 4.00000000000000000000, 4.00000000000000000000, 1669.00000000000000000000, 1688.00000000000000000000, 0.00000000000000000000
23.00000000000000000000, 0.00000000000000000000, 4106.15374574529870000000, 4791.28193411993560000000, 4298.46143335045510000000, 4632.30757903300580000000, 4326.15374036559750000000, 4835.38449714405120000000, 4281.53835684120080000000, 4296.92297184961350000000, 4571.28193949963680000000, 4921.02552069088050000000, 4483.58963395168480000000, 4315.89733035998870000000, 4510.76912046654710000000, 4337.94861187204700000000, 0.00000000000000000000, 4.00000000000000000000, 4.00000000000000000000, 4.00000000000000000000, 4.00000000000000000000, 4.00000000000000000000, 4.00000000000000000000, 0.00000000000000000000, 0.00000000000000000000, 4.00000000000000000000, 4.00000000000000000000, 4.00000000000000000000, 4.00000000000000000000, 4.00000000000000000000, 4.00000000000000000000, 4.00000000000000000000, 4.00000000000000000000, 1668.00000000000000000000, 1689.00000000000000000000, 0.00000000000000000000
24.00000000000000000000, 0.00000000000000000000, 4109.74348924726110000000, 4796.92295962301980000000, 4307.69220235550260000000, 4636.92296353552960000000, 4324.10245836447580000000, 4844.61526614909870000000, 4281.02553634092060000000, 4297.43579234989370000000, 4572.82040100047740000000, 4924.10244369256360000000, 4493.33322345701340000000, 4325.64091986531640000000, 4518.46142797075390000000, 4342.56399637457070000000, 0.00000000000000000000, 4.00000000000000000000, 4.00000000000000000000, 4.00000000000000000000, 4.00000000000000000000, 4.00000000000000000000, 4.00000000000000000000, 0.00000000000000000000, 0.00000000000000000000, 4.00000000000000000000, 4.00000000000000000000, 4.00000000000000000000, 4.00000000000000000000, 4.00000000000000000000, 4.00000000000000000000, 4.00000000000000000000, 4.00000000000000000000, 1669.00000000000000000000, 1687.00000000000000000000, 0.00000000000000000000
25.00000000000000000000, 0.00000000000000000000, 4118.46143775202840000000, 4797.43578012330000000000, 4310.76912535718470000000, 4638.97424553665130000000, 4318.46143286139070000000, 4843.58962514853740000000, 4279.48707484007900000000, 4299.48707435101550000000, 4564.61527299599130000000, 4915.89731568807660000000, 4491.79476195617190000000, 4325.12809936503620000000, 4515.38450496907080000000, 4342.05117587429050000000, 0.00000000000000000000, 4.00000000000000000000, 4.00000000000000000000, 4.00000000000000000000, 4.00000000000000000000, 4.00000000000000000000, 4.00000000000000000000, 0.00000000000000000000, 0.00000000000000000000, 4.00000000000000000000, 4.00000000000000000000, 4.00000000000000000000, 4.00000000000000000000, 4.00000000000000000000, 4.00000000000000000000, 4.00000000000000000000, 4.00000000000000000000, 1668.00000000000000000000, 1688.00000000000000000000, 0.00000000000000000000
26.00000000000000000000, 0.00000000000000000000, 4124.61528375539360000000, 4806.66654912834750000000, 4310.25630485690450000000, 4641.02552753777310000000, 4320.51271486251240000000, 4832.30757414236900000000, 4281.02553634092060000000, 4299.48707435101550000000, 4576.92296500272100000000, 4923.07680269200230000000, 4490.25630045533030000000, 4326.15374036559750000000, 4516.41014596963210000000, 4347.69220137737470000000, 0.00000000000000000000, 4.00000000000000000000, 4.00000000000000000000, 4.00000000000000000000, 4.00000000000000000000, 4.00000000000000000000, 4.00000000000000000000, 0.00000000000000000000, 0.00000000000000000000, 4.00000000000000000000, 4.00000000000000000000, 4.00000000000000000000, 4.00000000000000000000, 4.00000000000000000000, 4.00000000000000000000, 4.00000000000000000000, 4.00000000000000000000, 1668.00000000000000000000, 1688.00000000000000000000, 0.00000000000000000000
27.00000000000000000000, 0.00000000000000000000, 4126.15374525623430000000, 4816.41013863367610000000, 4313.33322785858670000000, 4641.02552753777310000000, 4326.66656086587770000000, 4829.74347164096620000000, 4286.15374134372450000000, 4296.92297184961350000000, 4594.35886201225550000000, 4941.53834070209720000000, 4496.92296695897580000000, 4333.84604786980340000000, 4526.15373547495980000000, 4351.79476537961820000000, 0.00000000000000000000, 4.00000000000000000000, 4.00000000000000000000, 4.00000000000000000000, 4.00000000000000000000, 4.00000000000000000000, 4.00000000000000000000, 0.00000000000000000000, 0.00000000000000000000, 4.00000000000000000000, 4.00000000000000000000, 4.00000000000000000000, 4.00000000000000000000, 4.00000000000000000000, 4.00000000000000000000, 4.00000000000000000000, 4.00000000000000000000, 1668.00000000000000000000, 1687.00000000000000000000, 0.00000000000000000000
28.00000000000000000000, 0.00000000000000000000, 4123.58964275483230000000, 4813.84603613227410000000, 4309.74348435662340000000, 4636.92296353552960000000, 4327.69220186643820000000, 4832.82039464264930000000, 4284.61527984288300000000, 4296.92297184961350000000, 4574.35886250131900000000, 4936.41013569929330000000, 4495.89732595841540000000, 4333.33322736952320000000, 4525.12809447439850000000, 4346.15373987653310000000, 0.00000000000000000000, 4.00000000000000000000, 4.00000000000000000000, 4.00000000000000000000, 4.00000000000000000000, 4.00000000000000000000, 4.00000000000000000000, 0.00000000000000000000, 0.00000000000000000000, 4.00000000000000000000, 4.00000000000000000000, 4.00000000000000000000, 4.00000000000000000000, 4.00000000000000000000, 4.00000000000000000000, 4.00000000000000000000, 4.00000000000000000000, 1669.00000000000000000000, 1686.00000000000000000000, 0.00000000000000000000
29.00000000000000000000, 0.00000000000000000000, 4114.35887374978480000000, 4802.05116462582370000000, 4297.43579234989370000000, 4630.76911753216520000000, 4326.66656086587770000000, 4832.30757414236900000000, 4281.53835684120080000000, 4296.92297184961350000000, 4549.23065798757850000000, 4922.05116169144180000000, 4491.79476195617190000000, 4325.64091986531640000000, 4523.07681247327760000000, 4338.46143237232720000000, 0.00000000000000000000, 4.00000000000000000000, 4.00000000000000000000, 4.00000000000000000000, 4.00000000000000000000, 4.00000000000000000000, 4.00000000000000000000, 0.00000000000000000000, 0.00000000000000000000, 4.00000000000000000000, 4.00000000000000000000, 4.00000000000000000000, 4.00000000000000000000, 4.00000000000000000000, 4.00000000000000000000, 4.00000000000000000000, 4.00000000000000000000, 1667.00000000000000000000, 1687.00000000000000000000, 0.00000000000000000000
30.00000000000000000000, 0.00000000000000000000, 4107.69220724613930000000, 4795.38449812217820000000, 4294.35886934821160000000, 4629.74347653160380000000, 4326.66656086587770000000, 4837.94859964545320000000, 4282.56399784176210000000, 4297.43579234989370000000, 4562.05117049458930000000, 4926.66654619396560000000, 4492.30758245645210000000, 4319.48707386195200000000, 4525.12809447439850000000, 4337.43579137176680000000, 0.00000000000000000000, 4.00000000000000000000, 4.00000000000000000000, 4.00000000000000000000, 4.00000000000000000000, 4.00000000000000000000, 4.00000000000000000000, 0.00000000000000000000, 0.00000000000000000000, 4.00000000000000000000, 4.00000000000000000000, 4.00000000000000000000, 4.00000000000000000000, 4.00000000000000000000, 4.00000000000000000000, 4.00000000000000000000, 4.00000000000000000000, 1668.00000000000000000000, 1685.00000000000000000000, 0.00000000000000000000
31.00000000000000000000, 0.00000000000000000000, 4107.17938674585910000000, 4796.92295962301980000000, 4297.94861285017400000000, 4630.76911753216520000000, 4322.56399686363420000000, 4844.10244564881850000000, 4281.53835684120080000000, 4297.94861285017400000000, 4572.30758050019720000000, 4925.64090519340430000000, 4484.61527495224620000000, 4312.30758685802630000000, 4511.28194096682730000000, 4332.82040686924300000000, 0.00000000000000000000, 4.00000000000000000000, 4.00000000000000000000, 4.00000000000000000000, 4.00000000000000000000, 4.00000000000000000000, 4.00000000000000000000, 0.00000000000000000000, 0.00000000000000000000, 4.00000000000000000000, 4.00000000000000000000, 4.00000000000000000000, 4.00000000000000000000, 4.00000000000000000000, 4.00000000000000000000, 4.00000000000000000000, 4.00000000000000000000, 1666.00000000000000000000, 1684.00000000000000000000, 0.00000000000000000000
32.00000000000000000000, 0.00000000000000000000, 4106.66656624557890000000, 4796.41013912273960000000, 4293.84604884793040000000, 4628.20501503076230000000, 4320.51271486251240000000, 4834.35885614348990000000, 4278.97425433979880000000, 4297.94861285017400000000, 4564.61527299599130000000, 4912.30757218611320000000, 4472.30758294551560000000, 4307.69220235550260000000, 4506.15373596402330000000, 4324.61527886475600000000, 0.00000000000000000000, 4.00000000000000000000, 4.00000000000000000000, 4.00000000000000000000, 4.00000000000000000000, 4.00000000000000000000, 4.00000000000000000000, 0.00000000000000000000, 0.00000000000000000000, 4.00000000000000000000, 4.00000000000000000000, 4.00000000000000000000, 4.00000000000000000000, 4.00000000000000000000, 4.00000000000000000000, 4.00000000000000000000, 4.00000000000000000000, 1667.00000000000000000000, 1685.00000000000000000000, 0.00000000000000000000
33.00000000000000000000, 0.00000000000000000000, 4107.17938674585910000000, 4792.82039562077630000000, 4292.82040784737000000000, 4627.69219453048210000000, 4326.15374036559750000000, 4826.66654863928400000000, 4280.51271584064030000000, 4297.94861285017400000000, 4562.05117049458930000000, 4915.38449518779630000000, 4471.79476244523540000000, 4314.35886885914720000000, 4521.53835097243610000000, 4327.69220186643820000000, 0.00000000000000000000, 4.00000000000000000000, 4.00000000000000000000, 4.00000000000000000000, 4.00000000000000000000, 4.00000000000000000000, 4.00000000000000000000, 0.00000000000000000000, 0.00000000000000000000, 4.00000000000000000000, 4.00000000000000000000, 4.00000000000000000000, 4.00000000000000000000, 4.00000000000000000000, 4.00000000000000000000, 4.00000000000000000000, 4.00000000000000000000, 1667.00000000000000000000, 1685.00000000000000000000, 0.00000000000000000000
34.00000000000000000000, 0.00000000000000000000, 4109.23066874698090000000, 4794.35885712161780000000, 4296.92297184961350000000, 4631.79475853272560000000, 4324.61527886475600000000, 4833.33321514292950000000, 4279.48707484007900000000, 4297.94861285017400000000, 4559.48706799318640000000, 4924.61526419284380000000, 4484.61527495224620000000, 4322.05117636335400000000, 4526.66655597524000000000, 4337.43579137176680000000, 0.00000000000000000000, 4.00000000000000000000, 4.00000000000000000000, 4.00000000000000000000, 4.00000000000000000000, 4.00000000000000000000, 4.00000000000000000000, 0.00000000000000000000, 0.00000000000000000000, 4.00000000000000000000, 4.00000000000000000000, 4.00000000000000000000, 4.00000000000000000000, 4.00000000000000000000, 4.00000000000000000000, 4.00000000000000000000, 4.00000000000000000000, 1665.00000000000000000000, 1687.00000000000000000000, 0.00000000000000000000
35.00000000000000000000, 0.00000000000000000000, 4108.20502774641950000000, 4795.38449812217820000000, 4295.38451034877200000000, 4626.66655352992170000000, 4312.82040735830650000000, 4833.84603564320970000000, 4276.92297233867700000000, 4297.94861285017400000000, 4557.43578599206560000000, 4922.05116169144180000000, 4490.76912095561060000000, 4318.97425336167090000000, 4522.05117147271630000000, 4337.43579137176680000000, 0.00000000000000000000, 4.00000000000000000000, 4.00000000000000000000, 4.00000000000000000000, 4.00000000000000000000, 4.00000000000000000000, 4.00000000000000000000, 0.00000000000000000000, 0.00000000000000000000, 4.00000000000000000000, 4.00000000000000000000, 4.00000000000000000000, 4.00000000000000000000, 4.00000000000000000000, 4.00000000000000000000, 4.00000000000000000000, 4.00000000000000000000, 1666.00000000000000000000, 1687.00000000000000000000, 0.00000000000000000000
36.00000000000000000000, 0.00000000000000000000, 4106.15374574529870000000, 4782.05116511488810000000, 4291.79476684680960000000, 4617.94860502515440000000, 4309.74348435662340000000, 4827.69218963984530000000, 4279.48707484007900000000, 4297.94861285017400000000, 4559.48706799318640000000, 4916.92295668863790000000, 4481.53835195056310000000, 4312.30758685802630000000, 4520.51270997187480000000, 4330.25630436784010000000, 0.00000000000000000000, 4.00000000000000000000, 4.00000000000000000000, 4.00000000000000000000, 4.00000000000000000000, 4.00000000000000000000, 4.00000000000000000000, 0.00000000000000000000, 0.00000000000000000000, 4.00000000000000000000, 4.00000000000000000000, 4.00000000000000000000, 4.00000000000000000000, 4.00000000000000000000, 4.00000000000000000000, 4.00000000000000000000, 4.00000000000000000000, 1665.00000000000000000000, 1689.00000000000000000000, 0.00000000000000000000
37.00000000000000000000, 0.00000000000000000000, 4105.64092524501760000000, 4766.66655010647540000000, 4288.20502334484630000000, 4618.97424602571480000000, 4319.48707386195200000000, 4828.71783064040570000000, 4282.05117734148100000000, 4297.94861285017400000000, 4558.46142699262600000000, 4919.48705919003990000000, 4477.94860844860070000000, 4313.84604835886690000000, 4517.94860747047280000000, 4330.25630436784010000000, 0.00000000000000000000, 4.00000000000000000000, 4.00000000000000000000, 4.00000000000000000000, 4.00000000000000000000, 4.00000000000000000000, 4.00000000000000000000, 0.00000000000000000000, 0.00000000000000000000, 4.00000000000000000000, 4.00000000000000000000, 4.00000000000000000000, 4.00000000000000000000, 4.00000000000000000000, 4.00000000000000000000, 4.00000000000000000000, 4.00000000000000000000, 1665.00000000000000000000, 1689.00000000000000000000, 0.00000000000000000000
38.00000000000000000000, 0.00000000000000000000, 4107.17938674585910000000, 4765.64090910591400000000, 4288.71784384512650000000, 4625.64091252936030000000, 4327.69220186643820000000, 4835.89731764433150000000, 4281.53835684120080000000, 4297.43579234989370000000, 4566.15373449683190000000, 4929.74346919564780000000, 4490.76912095561060000000, 4324.10245836447580000000, 4523.07681247327760000000, 4338.97425287260740000000, 0.00000000000000000000, 4.00000000000000000000, 4.00000000000000000000, 4.00000000000000000000, 4.00000000000000000000, 4.00000000000000000000, 4.00000000000000000000, 0.00000000000000000000, 0.00000000000000000000, 4.00000000000000000000, 4.00000000000000000000, 4.00000000000000000000, 4.00000000000000000000, 4.00000000000000000000, 4.00000000000000000000, 4.00000000000000000000, 4.00000000000000000000, 1665.00000000000000000000, 1690.00000000000000000000, 0.00000000000000000000
39.00000000000000000000, 0.00000000000000000000, 4110.25630974754130000000, 4767.17937060675560000000, 4295.89733084905220000000, 4625.64091252936030000000, 4327.69220186643820000000, 4841.53834314741650000000, 4281.53835684120080000000, 4298.97425385073530000000, 4577.94860600328230000000, 4941.53834070209720000000, 4501.02553096121940000000, 4330.25630436784010000000, 4534.35886347944600000000, 4344.61527837569250000000, 0.00000000000000000000, 4.00000000000000000000, 4.00000000000000000000, 4.00000000000000000000, 4.00000000000000000000, 4.00000000000000000000, 4.00000000000000000000, 0.00000000000000000000, 0.00000000000000000000, 4.00000000000000000000, 4.00000000000000000000, 4.00000000000000000000, 4.00000000000000000000, 4.00000000000000000000, 4.00000000000000000000, 4.00000000000000000000, 4.00000000000000000000, 1666.00000000000000000000, 1690.00000000000000000000, 0.00000000000000000000
40.00000000000000000000, 0.00000000000000000000, 4108.71784824670070000000, 4761.02552460339030000000, 4295.89733084905220000000, 4620.51270752655640000000, 4318.46143286139070000000, 4842.05116364769670000000, 4282.05117734148100000000, 4298.97425385073530000000, 4575.89732400216050000000, 4941.53834070209720000000, 4497.94860795953720000000, 4327.69220186643820000000, 4531.28194047776380000000, 4342.05117587429050000000, 0.00000000000000000000, 4.00000000000000000000, 4.00000000000000000000, 4.00000000000000000000, 4.00000000000000000000, 4.00000000000000000000, 4.00000000000000000000, 0.00000000000000000000, 0.00000000000000000000, 4.00000000000000000000, 4.00000000000000000000, 4.00000000000000000000, 4.00000000000000000000, 4.00000000000000000000, 4.00000000000000000000, 4.00000000000000000000, 4.00000000000000000000, 1666.00000000000000000000, 1691.00000000000000000000, 0.00000000000000000000
41.00000000000000000000, 0.00000000000000000000, 4106.15374574529870000000, 4755.89731960058630000000, 4284.61527984288300000000, 4617.43578452487420000000, 4309.23066385634320000000, 4844.10244564881850000000, 4282.56399784176210000000, 4297.94861285017400000000, 4576.92296500272100000000, 4931.28193069648930000000, 4486.66655695336790000000, 4321.53835586307380000000, 4521.02553047215590000000, 4334.35886837008370000000, 0.00000000000000000000, 4.00000000000000000000, 4.00000000000000000000, 4.00000000000000000000, 4.00000000000000000000, 4.00000000000000000000, 4.00000000000000000000, 0.00000000000000000000, 0.00000000000000000000, 4.00000000000000000000, 4.00000000000000000000, 4.00000000000000000000, 4.00000000000000000000, 4.00000000000000000000, 4.00000000000000000000, 4.00000000000000000000, 4.00000000000000000000, 1668.00000000000000000000, 1691.00000000000000000000, 0.00000000000000000000
42.00000000000000000000, 0.00000000000000000000, 4103.58964324389580000000, 4753.33321709918440000000, 4278.97425433979880000000, 4616.92296402459400000000, 4312.82040735830650000000, 4848.71783015134220000000, 4282.56399784176210000000, 4298.97425385073530000000, 4581.53834950524470000000, 4926.66654619396560000000, 4475.38450594719870000000, 4315.38450985970850000000, 4510.76912046654710000000, 4328.20502236671840000000, 0.00000000000000000000, 4.00000000000000000000, 4.00000000000000000000, 4.00000000000000000000, 4.00000000000000000000, 4.00000000000000000000, 4.00000000000000000000, 0.00000000000000000000, 0.00000000000000000000, 4.00000000000000000000, 4.00000000000000000000, 4.00000000000000000000, 4.00000000000000000000, 4.00000000000000000000, 4.00000000000000000000, 4.00000000000000000000, 4.00000000000000000000, 1667.00000000000000000000, 1690.00000000000000000000, 0.00000000000000000000
43.00000000000000000000, 0.00000000000000000000, 4098.46143824109190000000, 4754.35885809974570000000, 4281.53835684120080000000, 4614.87168202347220000000, 4319.99989436223220000000, 4847.17936865050070000000, 4282.05117734148100000000, 4297.94861285017400000000, 4566.15373449683190000000, 4918.46141818947850000000, 4471.79476244523540000000, 4310.25630485690450000000, 4504.10245396290160000000, 4323.58963786419460000000, 0.00000000000000000000, 4.00000000000000000000, 4.00000000000000000000, 4.00000000000000000000, 4.00000000000000000000, 4.00000000000000000000, 4.00000000000000000000, 0.00000000000000000000, 0.00000000000000000000, 4.00000000000000000000, 4.00000000000000000000, 4.00000000000000000000, 4.00000000000000000000, 4.00000000000000000000, 4.00000000000000000000, 4.00000000000000000000, 4.00000000000000000000, 1668.00000000000000000000, 1691.00000000000000000000, 0.00000000000000000000
44.00000000000000000000, 0.00000000000000000000, 4098.46143824109190000000, 4762.56398610423180000000, 4279.48707484007900000000, 4613.84604102291090000000, 4319.99989436223220000000, 4841.53834314741650000000, 4281.53835684120080000000, 4297.43579234989370000000, 4557.43578599206560000000, 4912.30757218611320000000, 4473.33322394607690000000, 4307.69220235550260000000, 4512.82040246766880000000, 4321.53835586307380000000, 0.00000000000000000000, 4.00000000000000000000, 4.00000000000000000000, 4.00000000000000000000, 4.00000000000000000000, 4.00000000000000000000, 4.00000000000000000000, 0.00000000000000000000, 0.00000000000000000000, 4.00000000000000000000, 4.00000000000000000000, 4.00000000000000000000, 4.00000000000000000000, 4.00000000000000000000, 4.00000000000000000000, 4.00000000000000000000, 4.00000000000000000000, 1668.00000000000000000000, 1689.00000000000000000000, 0.00000000000000000000
45.00000000000000000000, 0.00000000000000000000, 4105.64092524501760000000, 4767.17937060675560000000, 4279.48707484007900000000, 4617.94860502515440000000, 4317.94861236111050000000, 4842.05116364769670000000, 4282.05117734148100000000, 4298.46143335045510000000, 4565.12809349627150000000, 4919.99987969032010000000, 4475.89732644747890000000, 4307.69220235550260000000, 4524.10245347383810000000, 4324.10245836447580000000, 0.00000000000000000000, 4.00000000000000000000, 4.00000000000000000000, 4.00000000000000000000, 4.00000000000000000000, 4.00000000000000000000, 4.00000000000000000000, 0.00000000000000000000, 0.00000000000000000000, 4.00000000000000000000, 4.00000000000000000000, 4.00000000000000000000, 4.00000000000000000000, 4.00000000000000000000, 4.00000000000000000000, 4.00000000000000000000, 4.00000000000000000000, 1668.00000000000000000000, 1691.00000000000000000000, 0.00000000000000000000
46.00000000000000000000, 0.00000000000000000000, 4108.71784824670070000000, 4758.46142210198830000000, 4286.66656184400470000000, 4622.05116902739790000000, 4315.38450985970850000000, 4839.48706114629480000000, 4281.53835684120080000000, 4298.97425385073530000000, 4563.07681149514970000000, 4919.99987969032010000000, 4470.76912144467500000000, 4311.79476635774520000000, 4519.99988947159450000000, 4327.69220186643820000000, 0.00000000000000000000, 4.00000000000000000000, 4.00000000000000000000, 4.00000000000000000000, 4.00000000000000000000, 4.00000000000000000000, 4.00000000000000000000, 0.00000000000000000000, 0.00000000000000000000, 4.00000000000000000000, 4.00000000000000000000, 4.00000000000000000000, 4.00000000000000000000, 4.00000000000000000000, 4.00000000000000000000, 4.00000000000000000000, 4.00000000000000000000, 1669.00000000000000000000, 1689.00000000000000000000, 0.00000000000000000000
47.00000000000000000000, 0.00000000000000000000, 4105.64092524501760000000, 4753.33321709918440000000, 4286.15374134372450000000, 4618.46142552543460000000, 4311.79476635774520000000, 4835.38449714405120000000, 4281.53835684120080000000, 4298.46143335045510000000, 4551.28193998870030000000, 4904.61526468190730000000, 4459.48707043850570000000, 4313.33322785858670000000, 4515.38450496907080000000, 4326.66656086587770000000, 0.00000000000000000000, 4.00000000000000000000, 4.00000000000000000000, 4.00000000000000000000, 4.00000000000000000000, 4.00000000000000000000, 4.00000000000000000000, 0.00000000000000000000, 0.00000000000000000000, 4.00000000000000000000, 4.00000000000000000000, 4.00000000000000000000, 4.00000000000000000000, 4.00000000000000000000, 4.00000000000000000000, 4.00000000000000000000, 4.00000000000000000000, 1668.00000000000000000000, 1689.00000000000000000000, 0.00000000000000000000
48.00000000000000000000, 0.00000000000000000000, 4103.58964324389580000000, 4760.51270410311010000000, 4281.02553634092060000000, 4616.41014352431280000000, 4309.23066385634320000000, 4838.46142014573340000000, 4282.05117734148100000000, 4296.92297184961350000000, 4552.30758098926070000000, 4901.02552117994490000000, 4464.10245494102950000000, 4310.25630485690450000000, 4520.51270997187480000000, 4323.07681736391440000000, 0.00000000000000000000, 4.00000000000000000000, 4.00000000000000000000, 4.00000000000000000000, 4.00000000000000000000, 4.00000000000000000000, 4.00000000000000000000, 0.00000000000000000000, 0.00000000000000000000, 4.00000000000000000000, 4.00000000000000000000, 4.00000000000000000000, 4.00000000000000000000, 4.00000000000000000000, 4.00000000000000000000, 4.00000000000000000000, 4.00000000000000000000, 1669.00000000000000000000, 1689.00000000000000000000, 0.00000000000000000000
49.00000000000000000000, 0.00000000000000000000, 4105.64092524501760000000, 4765.64090910591400000000, 4288.20502334484630000000, 4625.64091252936030000000, 4312.82040735830650000000, 4843.07680464825720000000, 4281.02553634092060000000, 4295.89733084905220000000, 4562.56399099486950000000, 4909.74346968471130000000, 4475.38450594719870000000, 4313.33322785858670000000, 4521.02553047215590000000, 4326.15374036559750000000, 0.00000000000000000000, 4.00000000000000000000, 4.00000000000000000000, 4.00000000000000000000, 4.00000000000000000000, 4.00000000000000000000, 4.00000000000000000000, 0.00000000000000000000, 0.00000000000000000000, 4.00000000000000000000, 4.00000000000000000000, 4.00000000000000000000, 4.00000000000000000000, 4.00000000000000000000, 4.00000000000000000000, 4.00000000000000000000, 4.00000000000000000000, 1669.00000000000000000000, 1688.00000000000000000000, 0.00000000000000000000
50.00000000000000000000, 0.00000000000000000000, 4114.35887374978480000000, 4765.12808860563380000000, 4297.43579234989370000000, 4633.84604053384740000000, 4318.97425336167090000000, 4843.58962514853740000000, 4281.02553634092060000000, 4296.92297184961350000000, 4559.99988849346760000000, 4905.12808518218750000000, 4473.33322394607690000000, 4322.05117636335400000000, 4519.99988947159450000000, 4336.92297087148560000000, 0.00000000000000000000, 4.00000000000000000000, 4.00000000000000000000, 4.00000000000000000000, 4.00000000000000000000, 4.00000000000000000000, 4.00000000000000000000, 0.00000000000000000000, 0.00000000000000000000, 4.00000000000000000000, 4.00000000000000000000, 4.00000000000000000000, 4.00000000000000000000, 4.00000000000000000000, 4.00000000000000000000, 4.00000000000000000000, 4.00000000000000000000, 1669.00000000000000000000, 1688.00000000000000000000, 0.00000000000000000000
51.00000000000000000000, 0.00000000000000000000, 4121.02554025343030000000, 4767.17937060675560000000, 4299.99989485129570000000, 4633.33322003356720000000, 4316.92297136055000000000, 4843.58962514853740000000, 4282.05117734148100000000, 4297.94861285017400000000, 4556.41014499150420000000, 4901.53834168022510000000, 4479.48706994944220000000, 4330.76912486812130000000, 4529.74347897692220000000, 4345.12809887597270000000, 0.00000000000000000000, 4.00000000000000000000, 4.00000000000000000000, 4.00000000000000000000, 4.00000000000000000000, 4.00000000000000000000, 4.00000000000000000000, 0.00000000000000000000, 0.00000000000000000000, 4.00000000000000000000, 4.00000000000000000000, 4.00000000000000000000, 4.00000000000000000000, 4.00000000000000000000, 4.00000000000000000000, 4.00000000000000000000, 4.00000000000000000000, 1669.00000000000000000000, 1688.00000000000000000000, 0.00000000000000000000
52.00000000000000000000, 0.00000000000000000000, 4121.02554025343030000000, 4764.61526810535360000000, 4301.02553585185710000000, 4632.30757903300580000000, 4311.79476635774520000000, 4845.64090714965910000000, 4279.99989534035920000000, 4296.92297184961350000000, 4570.25629849907550000000, 4919.48705919003990000000, 4491.79476195617190000000, 4334.35886837008370000000, 4537.94860698140930000000, 4345.12809887597270000000, 0.00000000000000000000, 4.00000000000000000000, 4.00000000000000000000, 4.00000000000000000000, 4.00000000000000000000, 4.00000000000000000000, 4.00000000000000000000, 0.00000000000000000000, 0.00000000000000000000, 4.00000000000000000000, 4.00000000000000000000, 4.00000000000000000000, 4.00000000000000000000, 4.00000000000000000000, 4.00000000000000000000, 4.00000000000000000000, 4.00000000000000000000, 1669.00000000000000000000, 1689.00000000000000000000, 0.00000000000000000000
53.00000000000000000000, 0.00000000000000000000, 4119.99989925286990000000, 4755.38449910030610000000, 4299.99989485129570000000, 4629.74347653160380000000, 4318.97425336167090000000, 4845.12808664937890000000, 4278.46143383951860000000, 4298.46143335045510000000, 4576.41014450244070000000, 4925.64090519340430000000, 4483.58963395168480000000, 4330.76912486812130000000, 4531.28194047776380000000, 4342.56399637457070000000, 0.00000000000000000000, 4.00000000000000000000, 4.00000000000000000000, 4.00000000000000000000, 4.00000000000000000000, 4.00000000000000000000, 4.00000000000000000000, 0.00000000000000000000, 0.00000000000000000000, 4.00000000000000000000, 4.00000000000000000000, 4.00000000000000000000, 4.00000000000000000000, 4.00000000000000000000, 4.00000000000000000000, 4.00000000000000000000, 4.00000000000000000000, 1669.00000000000000000000, 1688.00000000000000000000, 0.00000000000000000000
54.00000000000000000000, 0.00000000000000000000, 4115.38451475034620000000, 4755.89731960058630000000, 4294.35886934821160000000, 4625.12809202908010000000, 4326.66656086587770000000, 4838.97424064601360000000, 4281.02553634092060000000, 4299.48707435101550000000, 4563.07681149514970000000, 4911.79475168583300000000, 4472.30758294551560000000, 4326.15374036559750000000, 4519.99988947159450000000, 4342.05117587429050000000, 0.00000000000000000000, 4.00000000000000000000, 4.00000000000000000000, 4.00000000000000000000, 4.00000000000000000000, 4.00000000000000000000, 4.00000000000000000000, 0.00000000000000000000, 0.00000000000000000000, 4.00000000000000000000, 4.00000000000000000000, 4.00000000000000000000, 4.00000000000000000000, 4.00000000000000000000, 4.00000000000000000000, 4.00000000000000000000, 4.00000000000000000000, 1670.00000000000000000000, 1688.00000000000000000000, 0.00000000000000000000
55.00000000000000000000, 0.00000000000000000000, 4112.30759174866310000000, 4766.15372960619520000000, 4293.33322834765020000000, 4627.17937403020190000000, 4320.51271486251240000000, 4837.43577914517300000000, 4282.56399784176210000000, 4296.92297184961350000000, 4559.99988849346760000000, 4911.79475168583300000000, 4483.07681345140460000000, 4327.17938136615790000000, 4526.66655597524000000000, 4342.56399637457070000000, 0.00000000000000000000, 4.00000000000000000000, 4.00000000000000000000, 4.00000000000000000000, 4.00000000000000000000, 4.00000000000000000000, 4.00000000000000000000, 0.00000000000000000000, 0.00000000000000000000, 4.00000000000000000000, 4.00000000000000000000, 4.00000000000000000000, 4.00000000000000000000, 4.00000000000000000000, 4.00000000000000000000, 4.00000000000000000000, 4.00000000000000000000, 1669.00000000000000000000, 1689.00000000000000000000, 0.00000000000000000000
56.00000000000000000000, 0.00000000000000000000, 4117.94861725174810000000, 4769.74347310815760000000, 4299.48707435101550000000, 4632.30757903300580000000, 4316.92297136055000000000, 4841.53834314741650000000, 4281.02553634092060000000, 4296.41015134933330000000, 4576.92296500272100000000, 4923.58962319228250000000, 4490.76912095561060000000, 4328.71784286699950000000, 4535.38450448000730000000, 4343.58963737513110000000, 0.00000000000000000000, 4.00000000000000000000, 4.00000000000000000000, 4.00000000000000000000, 4.00000000000000000000, 4.00000000000000000000, 4.00000000000000000000, 0.00000000000000000000, 0.00000000000000000000, 4.00000000000000000000, 4.00000000000000000000, 4.00000000000000000000, 4.00000000000000000000, 4.00000000000000000000, 4.00000000000000000000, 4.00000000000000000000, 4.00000000000000000000, 1670.00000000000000000000, 1688.00000000000000000000, 0.00000000000000000000
57.00000000000000000000, 0.00000000000000000000, 4122.56400175427190000000, 4766.15372960619520000000, 4302.05117685241750000000, 4631.79475853272560000000, 4321.53835586307380000000, 4835.89731764433150000000, 4281.53835684120080000000, 4296.92297184961350000000, 4580.51270850468430000000, 4915.38449518779630000000, 4478.46142894888090000000, 4325.64091986531640000000, 4529.23065847664200000000, 4342.56399637457070000000, 0.00000000000000000000, 4.00000000000000000000, 4.00000000000000000000, 4.00000000000000000000, 4.00000000000000000000, 4.00000000000000000000, 4.00000000000000000000, 0.00000000000000000000, 0.00000000000000000000, 4.00000000000000000000, 4.00000000000000000000, 4.00000000000000000000, 4.00000000000000000000, 4.00000000000000000000, 4.00000000000000000000, 4.00000000000000000000, 4.00000000000000000000, 1670.00000000000000000000, 1687.00000000000000000000, 0.00000000000000000000
58.00000000000000000000, 0.00000000000000000000, 4118.46143775202840000000, 4763.07680660451210000000, 4301.53835635213730000000, 4630.25629703188410000000, 4319.48707386195200000000, 4830.76911264152750000000, 4283.58963884232250000000, 4296.41015134933330000000, 4574.87168300159920000000, 4907.69218768358950000000, 4471.79476244523540000000, 4328.20502236671840000000, 4518.97424847103410000000, 4339.99989387316870000000, 0.00000000000000000000, 4.00000000000000000000, 4.00000000000000000000, 4.00000000000000000000, 4.00000000000000000000, 4.00000000000000000000, 4.00000000000000000000, 0.00000000000000000000, 0.00000000000000000000, 4.00000000000000000000, 4.00000000000000000000, 4.00000000000000000000, 4.00000000000000000000, 4.00000000000000000000, 4.00000000000000000000, 4.00000000000000000000, 4.00000000000000000000, 1670.00000000000000000000, 1687.00000000000000000000, 0.00000000000000000000
59.00000000000000000000, 0.00000000000000000000, 4117.94861725174810000000, 4764.61526810535360000000, 4302.56399735269770000000, 4630.25629703188410000000, 4312.30758685802630000000, 4839.48706114629480000000, 4282.56399784176210000000, 4297.94861285017400000000, 4579.99988800440310000000, 4915.38449518779630000000, 4481.53835195056310000000, 4333.84604786980340000000, 4517.43578697019260000000, 4341.02553487372920000000, 0.00000000000000000000, 4.00000000000000000000, 4.00000000000000000000, 4.00000000000000000000, 4.00000000000000000000, 4.00000000000000000000, 4.00000000000000000000, 0.00000000000000000000, 0.00000000000000000000, 4.00000000000000000000, 4.00000000000000000000, 4.00000000000000000000, 4.00000000000000000000, 4.00000000000000000000, 4.00000000000000000000, 4.00000000000000000000, 4.00000000000000000000, 1669.00000000000000000000, 1686.00000000000000000000, 0.00000000000000000000
60.00000000000000000000, 0.00000000000000000000, 4121.02554025343030000000, 4765.64090910591400000000, 4306.66656135494120000000, 4630.76911753216520000000, 4312.82040735830650000000, 4845.12808664937890000000, 4281.02553634092060000000, 4297.94861285017400000000, 4586.15373400776840000000, 4917.94859768919830000000, 4491.79476195617190000000, 4335.89732987092520000000, 4529.74347897692220000000, 4345.64091937625290000000, 0.00000000000000000000, 4.00000000000000000000, 4.00000000000000000000, 4.00000000000000000000, 4.00000000000000000000, 4.00000000000000000000, 4.00000000000000000000, 0.00000000000000000000, 0.00000000000000000000, 4.00000000000000000000, 4.00000000000000000000, 4.00000000000000000000, 4.00000000000000000000, 4.00000000000000000000, 4.00000000000000000000, 4.00000000000000000000, 4.00000000000000000000, 1670.00000000000000000000, 1686.00000000000000000000, 0.00000000000000000000
61.00000000000000000000, 0.00000000000000000000, 4123.58964275483230000000, 4767.69219110703580000000, 4310.76912535718470000000, 4634.35886103412760000000, 4323.07681736391440000000, 4842.56398414797700000000, 4282.56399784176210000000, 4295.89733084905220000000, 4586.66655450804860000000, 4921.53834119116160000000, 4494.35886445757390000000, 4345.64091937625290000000, 4543.07681198421320000000, 4352.82040638017860000000, 0.00000000000000000000, 4.00000000000000000000, 4.00000000000000000000, 4.00000000000000000000, 4.00000000000000000000, 4.00000000000000000000, 4.00000000000000000000, 0.00000000000000000000, 0.00000000000000000000, 4.00000000000000000000, 4.00000000000000000000, 4.00000000000000000000, 4.00000000000000000000, 4.00000000000000000000, 4.00000000000000000000, 4.00000000000000000000, 4.00000000000000000000, 1669.00000000000000000000, 1685.00000000000000000000, 0.00000000000000000000
62.00000000000000000000, 0.00000000000000000000, 4125.12810425567390000000, 4774.87167811096150000000, 4312.82040735830650000000, 4634.87168153440780000000, 4329.23066336727970000000, 4846.66654815022050000000, 4283.07681834204230000000, 4296.92297184961350000000, 4588.71783650917040000000, 4927.69218719452600000000, 4492.30758245645210000000, 4353.33322688045880000000, 4544.61527348505480000000, 4359.48707288382410000000, 0.00000000000000000000, 4.00000000000000000000, 4.00000000000000000000, 4.00000000000000000000, 4.00000000000000000000, 4.00000000000000000000, 4.00000000000000000000, 0.00000000000000000000, 0.00000000000000000000, 4.00000000000000000000, 4.00000000000000000000, 4.00000000000000000000, 4.00000000000000000000, 4.00000000000000000000, 4.00000000000000000000, 4.00000000000000000000, 4.00000000000000000000, 1670.00000000000000000000, 1686.00000000000000000000, 0.00000000000000000000
63.00000000000000000000, 0.00000000000000000000, 4123.58964275483230000000, 4777.43578061236440000000, 4310.25630485690450000000, 4631.28193803244540000000, 4327.69220186643820000000, 4849.23065065162250000000, 4279.48707484007900000000, 4297.94861285017400000000, 4590.25629801001200000000, 4919.99987969032010000000, 4489.23065945476990000000, 4346.15373987653310000000, 4537.94860698140930000000, 4357.43579088270230000000, 0.00000000000000000000, 4.00000000000000000000, 4.00000000000000000000, 4.00000000000000000000, 4.00000000000000000000, 4.00000000000000000000, 4.00000000000000000000, 0.00000000000000000000, 0.00000000000000000000, 4.00000000000000000000, 4.00000000000000000000, 4.00000000000000000000, 4.00000000000000000000, 4.00000000000000000000, 4.00000000000000000000, 4.00000000000000000000, 4.00000000000000000000, 1669.00000000000000000000, 1685.00000000000000000000, 0.00000000000000000000
64.00000000000000000000, 0.00000000000000000000, 4121.53836075371050000000, 4775.89731911152280000000, 4304.10245885353920000000, 4629.74347653160380000000, 4323.07681736391440000000, 4846.66654815022050000000, 4279.48707484007900000000, 4296.41015134933330000000, 4591.79475951085350000000, 4917.94859768919830000000, 4488.71783895448970000000, 4342.56399637457070000000, 4538.46142748168950000000, 4352.30758587989840000000, 457.00000000000000000000, 4.00000000000000000000, 4.00000000000000000000, 4.00000000000000000000, 4.00000000000000000000, 4.00000000000000000000, 4.00000000000000000000, 0.00000000000000000000, 0.00000000000000000000, 4.00000000000000000000, 4.00000000000000000000, 4.00000000000000000000, 4.00000000000000000000, 4.00000000000000000000, 4.00000000000000000000, 4.00000000000000000000, 4.00000000000000000000, 1669.00000000000000000000, 1688.00000000000000000000, 0.00000000000000000000
65.00000000000000000000, 0.00000000000000000000, 4122.05118125399170000000, 4775.89731911152280000000, 4304.10245885353920000000, 4629.74347653160380000000, 4319.48707386195200000000, 4846.15372764994030000000, 4282.05117734148100000000, 4298.97425385073530000000, 4593.33322101169410000000, 4928.20500769480620000000, 4491.28194145589170000000, 4348.71784237793510000000, 4541.02552998309150000000, 4354.87168838130040000000, 483.00000000000000000000, 4.00000000000000000000, 4.00000000000000000000, 4.00000000000000000000, 4.00000000000000000000, 4.00000000000000000000, 4.00000000000000000000, 0.00000000000000000000, 0.00000000000000000000, 4.00000000000000000000, 4.00000000000000000000, 4.00000000000000000000, 4.00000000000000000000, 4.00000000000000000000, 4.00000000000000000000, 4.00000000000000000000, 4.00000000000000000000, 1669.00000000000000000000, 1687.00000000000000000000, 0.00000000000000000000
66.00000000000000000000, 0.00000000000000000000, 4124.61528375539360000000, 4774.87167811096150000000, 4307.17938185522140000000, 4629.74347653160380000000, 4323.58963786419460000000, 4842.05116364769670000000, 4282.56399784176210000000, 4302.56399735269770000000, 4587.69219550861000000000, 4922.05116169144180000000, 4495.89732595841540000000, 4346.66656037681420000000, 4538.46142748168950000000, 4356.41014988214190000000, 500.00000000000000000000, 4.00000000000000000000, 4.00000000000000000000, 4.00000000000000000000, 4.00000000000000000000, 4.00000000000000000000, 4.00000000000000000000, 0.00000000000000000000, 0.00000000000000000000, 4.00000000000000000000, 4.00000000000000000000, 4.00000000000000000000, 4.00000000000000000000, 4.00000000000000000000, 4.00000000000000000000, 4.00000000000000000000, 4.00000000000000000000, 1668.00000000000000000000, 1689.00000000000000000000, 0.00000000000000000000
67.00000000000000000000, 0.00000000000000000000, 4124.10246325511250000000, 4775.38449861124260000000, 4306.66656135494120000000, 4630.25629703188410000000, 4323.58963786419460000000, 4840.51270214685520000000, 4279.99989534035920000000, 4298.97425385073530000000, 4588.20501600889020000000, 4914.35885418723500000000, 4491.28194145589170000000, 4339.48707337288760000000, 4536.41014548056770000000, 4351.79476537961820000000, 507.00000000000000000000, 4.00000000000000000000, 4.00000000000000000000, 4.00000000000000000000, 4.00000000000000000000, 4.00000000000000000000, 4.00000000000000000000, 0.00000000000000000000, 0.00000000000000000000, 4.00000000000000000000, 4.00000000000000000000, 4.00000000000000000000, 4.00000000000000000000, 4.00000000000000000000, 4.00000000000000000000, 4.00000000000000000000, 4.00000000000000000000, 1668.00000000000000000000, 1689.00000000000000000000, 0.00000000000000000000
68.00000000000000000000, 0.00000000000000000000, 4122.56400175427190000000, 4778.97424211320500000000, 4308.20502285578280000000, 4631.28193803244540000000, 4310.25630485690450000000, 4843.07680464825720000000, 4278.46143383951860000000, 4295.38451034877200000000, 4594.35886201225550000000, 4924.61526419284380000000, 4481.02553145028290000000, 4342.05117587429050000000, 4532.30758147832510000000, 4350.25630387877660000000, 525.00000000000000000000, 4.00000000000000000000, 4.00000000000000000000, 4.00000000000000000000, 4.00000000000000000000, 4.00000000000000000000, 4.00000000000000000000, 0.00000000000000000000, 0.00000000000000000000, 4.00000000000000000000, 4.00000000000000000000, 4.00000000000000000000, 4.00000000000000000000, 4.00000000000000000000, 4.00000000000000000000, 4.00000000000000000000, 4.00000000000000000000, 1667.00000000000000000000, 1689.00000000000000000000, 0.00000000000000000000
69.00000000000000000000, 0.00000000000000000000, 4128.20502725735610000000, 4781.02552411432680000000, 4312.82040735830650000000, 4630.76911753216520000000, 4305.64092035438080000000, 4841.02552264713540000000, 4280.51271584064030000000, 4295.89733084905220000000, 4586.66655450804860000000, 4925.12808469312400000000, 4482.56399295112440000000, 4349.23066287821620000000, 4534.87168397972710000000, 4354.87168838130040000000, 495.00000000000000000000, 4.00000000000000000000, 4.00000000000000000000, 4.00000000000000000000, 4.00000000000000000000, 4.00000000000000000000, 4.00000000000000000000, 0.00000000000000000000, 0.00000000000000000000, 4.00000000000000000000, 4.00000000000000000000, 4.00000000000000000000, 4.00000000000000000000, 4.00000000000000000000, 4.00000000000000000000, 4.00000000000000000000, 4.00000000000000000000, 1668.00000000000000000000, 1688.00000000000000000000, 0.00000000000000000000
70.00000000000000000000, 0.00000000000000000000, 4139.99989876380550000000, 4780.51270361404660000000, 4315.38450985970850000000, 4634.35886103412760000000, 4323.07681736391440000000, 4841.02552264713540000000, 4282.56399784176210000000, 4297.94861285017400000000, 4578.97424700384270000000, 4908.71782868415080000000, 4494.87168495785410000000, 4357.94861138298260000000, 4536.92296598084890000000, 4360.51271388438540000000, 0.00000000000000000000, 4.00000000000000000000, 4.00000000000000000000, 4.00000000000000000000, 4.00000000000000000000, 4.00000000000000000000, 4.00000000000000000000, 0.00000000000000000000, 0.00000000000000000000, 4.00000000000000000000, 4.00000000000000000000, 4.00000000000000000000, 4.00000000000000000000, 4.00000000000000000000, 4.00000000000000000000, 4.00000000000000000000, 4.00000000000000000000, 1667.00000000000000000000, 1688.00000000000000000000, 0.00000000000000000000
71.00000000000000000000, 0.00000000000000000000, 4139.48707826352530000000, 4783.07680611544860000000, 4312.82040735830650000000, 4633.84604053384740000000, 4329.23066336727970000000, 4843.07680464825720000000, 4282.05117734148100000000, 4296.92297184961350000000, 4585.12809300720800000000, 4902.05116218050530000000, 4490.76912095561060000000, 4354.87168838130040000000, 4528.20501747608160000000, 4358.97425238354390000000, 0.00000000000000000000, 4.00000000000000000000, 4.00000000000000000000, 4.00000000000000000000, 4.00000000000000000000, 4.00000000000000000000, 4.00000000000000000000, 0.00000000000000000000, 0.00000000000000000000, 4.00000000000000000000, 4.00000000000000000000, 4.00000000000000000000, 4.00000000000000000000, 4.00000000000000000000, 4.00000000000000000000, 4.00000000000000000000, 4.00000000000000000000, 1668.00000000000000000000, 1688.00000000000000000000, 0.00000000000000000000
72.00000000000000000000, 0.00000000000000000000, 4127.17938625679560000000, 4778.46142161292480000000, 4306.15374085466100000000, 4625.64091252936030000000, 4318.46143286139070000000, 4836.92295864489280000000, 4281.02553634092060000000, 4296.41015134933330000000, 4584.61527250692690000000, 4909.74346968471130000000, 4476.92296744803930000000, 4343.07681687485090000000, 4522.56399197299650000000, 4349.23066287821620000000, 465.00000000000000000000, 4.00000000000000000000, 4.00000000000000000000, 4.00000000000000000000, 4.00000000000000000000, 4.00000000000000000000, 4.00000000000000000000, 0.00000000000000000000, 0.00000000000000000000, 4.00000000000000000000, 4.00000000000000000000, 4.00000000000000000000, 4.00000000000000000000, 4.00000000000000000000, 4.00000000000000000000, 4.00000000000000000000, 4.00000000000000000000, 1666.00000000000000000000, 1687.00000000000000000000, 0.00000000000000000000
73.00000000000000000000, 0.00000000000000000000, 4121.53836075371050000000, 4776.41013961180310000000, 4297.94861285017400000000, 4623.58963052823860000000, 4319.48707386195200000000, 4833.84603564320970000000, 4283.07681834204230000000, 4296.92297184961350000000, 4574.87168300159920000000, 4915.89731568807660000000, 4474.87168544691850000000, 4338.97425287260740000000, 4525.12809447439850000000, 4341.53835537400940000000, 442.00000000000000000000, 4.00000000000000000000, 4.00000000000000000000, 4.00000000000000000000, 4.00000000000000000000, 4.00000000000000000000, 4.00000000000000000000, 0.00000000000000000000, 0.00000000000000000000, 4.00000000000000000000, 4.00000000000000000000, 4.00000000000000000000, 4.00000000000000000000, 4.00000000000000000000, 4.00000000000000000000, 4.00000000000000000000, 4.00000000000000000000, 1667.00000000000000000000, 1688.00000000000000000000, 0.00000000000000000000
74.00000000000000000000, 0.00000000000000000000, 4122.05118125399170000000, 4787.17937011769210000000, 4296.92297184961350000000, 4627.17937403020190000000, 4323.58963786419460000000, 4841.53834314741650000000, 4283.07681834204230000000, 4297.43579234989370000000, 4568.71783699823390000000, 4910.25629018499240000000, 4476.41014694775910000000, 4337.43579137176680000000, 4522.05117147271630000000, 4340.51271437344890000000, 475.00000000000000000000, 4.00000000000000000000, 4.00000000000000000000, 4.00000000000000000000, 4.00000000000000000000, 4.00000000000000000000, 4.00000000000000000000, 0.00000000000000000000, 0.00000000000000000000, 4.00000000000000000000, 4.00000000000000000000, 4.00000000000000000000, 4.00000000000000000000, 4.00000000000000000000, 4.00000000000000000000, 4.00000000000000000000, 4.00000000000000000000, 1667.00000000000000000000, 1686.00000000000000000000, 0.00000000000000000000
75.00000000000000000000, 0.00000000000000000000, 4120.51271975315010000000, 4797.43578012330000000000, 4297.43579234989370000000, 4628.20501503076230000000, 4321.53835586307380000000, 4845.64090714965910000000, 4280.51271584064030000000, 4297.43579234989370000000, 4568.71783699823390000000, 4904.61526468190730000000, 4477.94860844860070000000, 4334.87168887036390000000, 4519.99988947159450000000, 4341.53835537400940000000, 473.00000000000000000000, 4.00000000000000000000, 4.00000000000000000000, 4.00000000000000000000, 4.00000000000000000000, 4.00000000000000000000, 4.00000000000000000000, 0.00000000000000000000, 0.00000000000000000000, 4.00000000000000000000, 4.00000000000000000000, 4.00000000000000000000, 4.00000000000000000000, 4.00000000000000000000, 4.00000000000000000000, 4.00000000000000000000, 4.00000000000000000000, 1665.00000000000000000000, 1687.00000000000000000000, 0.00000000000000000000
76.00000000000000000000, 0.00000000000000000000, 4121.53836075371050000000, 4801.53834412554350000000, 4295.38451034877200000000, 4629.74347653160380000000, 4327.69220186643820000000, 4844.10244564881850000000, 4280.51271584064030000000, 4297.94861285017400000000, 4575.89732400216050000000, 4912.30757218611320000000, 4488.71783895448970000000, 4339.48707337288760000000, 4527.17937647552030000000, 4345.64091937625290000000, 469.00000000000000000000, 4.00000000000000000000, 4.00000000000000000000, 4.00000000000000000000, 4.00000000000000000000, 4.00000000000000000000, 4.00000000000000000000, 0.00000000000000000000, 0.00000000000000000000, 4.00000000000000000000, 4.00000000000000000000, 4.00000000000000000000, 4.00000000000000000000, 4.00000000000000000000, 4.00000000000000000000, 4.00000000000000000000, 4.00000000000000000000, 1665.00000000000000000000, 1685.00000000000000000000, 0.00000000000000000000
77.00000000000000000000, 0.00000000000000000000, 4120.51271975315010000000, 4802.56398512610490000000, 4293.84604884793040000000, 4632.30757903300580000000, 4333.84604786980340000000, 4845.64090714965910000000, 4282.05117734148100000000, 4298.46143335045510000000, 4585.64091350748820000000, 4926.15372569368540000000, 4491.79476195617190000000, 4339.99989387316870000000, 4525.12809447439850000000, 4344.10245787541130000000, 458.00000000000000000000, 4.00000000000000000000, 4.00000000000000000000, 4.00000000000000000000, 4.00000000000000000000, 4.00000000000000000000, 4.00000000000000000000, 0.00000000000000000000, 0.00000000000000000000, 4.00000000000000000000, 4.00000000000000000000, 4.00000000000000000000, 4.00000000000000000000, 4.00000000000000000000, 4.00000000000000000000, 4.00000000000000000000, 4.00000000000000000000, 1663.00000000000000000000, 1686.00000000000000000000, 0.00000000000000000000
78.00000000000000000000, 0.00000000000000000000, 4114.35887374978480000000, 4803.07680562638510000000, 4293.33322834765020000000, 4629.23065603132360000000, 4326.15374036559750000000, 4846.66654815022050000000, 4281.53835684120080000000, 4297.43579234989370000000, 4588.20501600889020000000, 4925.12808469312400000000, 4481.02553145028290000000, 4330.25630436784010000000, 4518.97424847103410000000, 4334.87168887036390000000, 475.00000000000000000000, 4.00000000000000000000, 4.00000000000000000000, 4.00000000000000000000, 4.00000000000000000000, 4.00000000000000000000, 4.00000000000000000000, 0.00000000000000000000, 0.00000000000000000000, 4.00000000000000000000, 4.00000000000000000000, 4.00000000000000000000, 4.00000000000000000000, 4.00000000000000000000, 4.00000000000000000000, 4.00000000000000000000, 4.00000000000000000000, 1664.00000000000000000000, 1687.00000000000000000000, 0.00000000000000000000
79.00000000000000000000, 0.00000000000000000000, 4106.15374574529870000000, 4798.46142112386130000000, 4292.30758734708980000000, 4625.64091252936030000000, 4316.92297136055000000000, 4843.58962514853740000000, 4279.99989534035920000000, 4295.38451034877200000000, 4578.97424700384270000000, 4909.23064918443110000000, 4471.28194194495520000000, 4324.10245836447580000000, 4519.48706897131430000000, 4327.69220186643820000000, 473.00000000000000000000, 4.00000000000000000000, 4.00000000000000000000, 4.00000000000000000000, 4.00000000000000000000, 4.00000000000000000000, 4.00000000000000000000, 0.00000000000000000000, 0.00000000000000000000, 4.00000000000000000000, 4.00000000000000000000, 4.00000000000000000000, 4.00000000000000000000, 4.00000000000000000000, 4.00000000000000000000, 4.00000000000000000000, 4.00000000000000000000, 1664.00000000000000000000, 1685.00000000000000000000, 0.00000000000000000000
80.00000000000000000000, 0.00000000000000000000, 4107.17938674585910000000, 4793.33321612105740000000, 4293.33322834765020000000, 4627.17937403020190000000, 4315.89733035998870000000, 4840.51270214685520000000, 4279.48707484007900000000, 4295.89733084905220000000, 4569.23065749851500000000, 4902.56398268078560000000, 4472.30758294551560000000, 4326.15374036559750000000, 4519.99988947159450000000, 4327.69220186643820000000, 469.00000000000000000000, 4.00000000000000000000, 4.00000000000000000000, 4.00000000000000000000, 4.00000000000000000000, 4.00000000000000000000, 4.00000000000000000000, 0.00000000000000000000, 0.00000000000000000000, 4.00000000000000000000, 4.00000000000000000000, 4.00000000000000000000, 4.00000000000000000000, 4.00000000000000000000, 4.00000000000000000000, 4.00000000000000000000, 4.00000000000000000000, 1664.00000000000000000000, 1686.00000000000000000000, 0.00000000000000000000
81.00000000000000000000, 0.00000000000000000000, 4117.94861725174810000000, 4798.46142112386130000000, 4295.38451034877200000000, 4630.25629703188410000000, 4323.07681736391440000000, 4841.53834314741650000000, 4279.99989534035920000000, 4297.43579234989370000000, 4575.89732400216050000000, 4916.41013618835680000000, 4488.71783895448970000000, 4336.41015037120540000000, 4531.28194047776380000000, 4339.99989387316870000000, 458.00000000000000000000, 4.00000000000000000000, 4.00000000000000000000, 4.00000000000000000000, 4.00000000000000000000, 4.00000000000000000000, 4.00000000000000000000, 0.00000000000000000000, 0.00000000000000000000, 4.00000000000000000000, 4.00000000000000000000, 4.00000000000000000000, 4.00000000000000000000, 4.00000000000000000000, 4.00000000000000000000, 4.00000000000000000000, 4.00000000000000000000, 1664.00000000000000000000, 1686.00000000000000000000, 0.00000000000000000000
82.00000000000000000000, 0.00000000000000000000, 4123.58964275483230000000, 4800.51270312498310000000, 4297.94861285017400000000, 4630.25629703188410000000, 4329.23066336727970000000, 4842.56398414797700000000, 4279.48707484007900000000, 4296.41015134933330000000, 4592.30758001113370000000, 4928.20500769480620000000, 4502.56399246206090000000, 4346.66656037681420000000, 4541.02552998309150000000, 4351.79476537961820000000, 475.00000000000000000000, 4.00000000000000000000, 4.00000000000000000000, 4.00000000000000000000, 4.00000000000000000000, 4.00000000000000000000, 4.00000000000000000000, 0.00000000000000000000, 0.00000000000000000000, 4.00000000000000000000, 4.00000000000000000000, 4.00000000000000000000, 4.00000000000000000000, 4.00000000000000000000, 4.00000000000000000000, 4.00000000000000000000, 4.00000000000000000000, 1664.00000000000000000000, 1685.00000000000000000000, 0.00000000000000000000
83.00000000000000000000, 0.00000000000000000000, 4115.38451475034620000000, 4789.23065211881390000000, 4295.89733084905220000000, 4622.05116902739790000000, 4318.97425336167090000000, 4838.97424064601360000000, 4278.97425433979880000000, 4294.87168984849180000000, 4592.30758001113370000000, 4923.58962319228250000000, 4491.79476195617190000000, 4340.51271437344890000000, 4532.82040197860530000000, 4343.58963737513110000000, 473.00000000000000000000, 4.00000000000000000000, 4.00000000000000000000, 4.00000000000000000000, 4.00000000000000000000, 4.00000000000000000000, 4.00000000000000000000, 0.00000000000000000000, 0.00000000000000000000, 4.00000000000000000000, 4.00000000000000000000, 4.00000000000000000000, 4.00000000000000000000, 4.00000000000000000000, 4.00000000000000000000, 4.00000000000000000000, 4.00000000000000000000, 1664.00000000000000000000, 1684.00000000000000000000, 0.00000000000000000000
84.00000000000000000000, 0.00000000000000000000, 4106.15374574529870000000, 4780.51270361404660000000, 4285.64092084344430000000, 4616.92296402459400000000, 4311.79476635774520000000, 4838.46142014573340000000, 4281.53835684120080000000, 4295.89733084905220000000, 4575.89732400216050000000, 4916.92295668863790000000, 4475.89732644747890000000, 4326.66656086587770000000, 4515.89732546935100000000, 4327.17938136615790000000, 469.00000000000000000000, 4.00000000000000000000, 4.00000000000000000000, 4.00000000000000000000, 4.00000000000000000000, 4.00000000000000000000, 4.00000000000000000000, 0.00000000000000000000, 0.00000000000000000000, 4.00000000000000000000, 4.00000000000000000000, 4.00000000000000000000, 4.00000000000000000000, 4.00000000000000000000, 4.00000000000000000000, 4.00000000000000000000, 4.00000000000000000000, 1664.00000000000000000000, 1685.00000000000000000000, 0.00000000000000000000
85.00000000000000000000, 0.00000000000000000000, 4103.07682274361560000000, 4785.64090861685050000000, 4277.94861333923840000000, 4617.94860502515440000000, 4319.99989436223220000000, 4844.10244564881850000000, 4283.58963884232250000000, 4297.43579234989370000000, 4567.69219599767350000000, 4912.30757218611320000000, 4472.82040344579670000000, 4318.46143286139070000000, 4511.79476146710840000000, 4324.10245836447580000000, 458.00000000000000000000, 4.00000000000000000000, 4.00000000000000000000, 4.00000000000000000000, 4.00000000000000000000, 4.00000000000000000000, 4.00000000000000000000, 0.00000000000000000000, 0.00000000000000000000, 4.00000000000000000000, 4.00000000000000000000, 4.00000000000000000000, 4.00000000000000000000, 4.00000000000000000000, 4.00000000000000000000, 4.00000000000000000000, 4.00000000000000000000, 1665.00000000000000000000, 1683.00000000000000000000, 0.00000000000000000000
86.00000000000000000000, 0.00000000000000000000, 4103.07682274361560000000, 4793.33321612105740000000, 4279.48707484007900000000, 4617.43578452487420000000, 4318.97425336167090000000, 4843.58962514853740000000, 4281.53835684120080000000, 4296.92297184961350000000, 4575.89732400216050000000, 4908.20500818387060000000, 4473.33322394607690000000, 4321.02553536279270000000, 4514.87168446879060000000, 4326.15374036559750000000, 475.00000000000000000000, 4.00000000000000000000, 4.00000000000000000000, 4.00000000000000000000, 4.00000000000000000000, 4.00000000000000000000, 4.00000000000000000000, 0.00000000000000000000, 0.00000000000000000000, 4.00000000000000000000, 4.00000000000000000000, 4.00000000000000000000, 4.00000000000000000000, 4.00000000000000000000, 4.00000000000000000000, 4.00000000000000000000, 4.00000000000000000000, 1663.00000000000000000000, 1685.00000000000000000000, 0.00000000000000000000
