title:n1                                                                              , recorded:09.12.13 13.00.44, sampling:128, subject:s1                                                                              , labels:COUNTER INTERPOLATED AF3 F7 F3 FC5 T7 P7 O1 O2 P8 T8 FC6 F4 F8 AF4 RAW_CQ CQ_AF3 CQ_F7 CQ_F3 CQ_FC5 CQ_T7 CQ_P7 CQ_O1 CQ_O2 CQ_P8 CQ_T8 CQ_FC6 CQ_F4 CQ_F8 CQ_AF4 CQ_CMS CQ_DRL GYROX GYROY MARKER, chan:36, units:emotiv
12.00000000000000000000, 0.00000000000000000000, 4058.46143921921930000000, 4716.92296157927470000000, 4229.74348631287920000000, 4632.82039953328600000000, 4278.46143383951860000000, 4796.41013912273960000000, 4278.46143383951860000000, 4295.38451034877200000000, 4470.25630094439480000000, 4898.46141867854200000000, 4521.02553047215590000000, 4169.74348778006970000000, 4610.25629752094850000000, 4294.87168984849180000000, 498.00000000000000000000, 4.00000000000000000000, 4.00000000000000000000, 4.00000000000000000000, 4.00000000000000000000, 4.00000000000000000000, 4.00000000000000000000, 0.00000000000000000000, 0.00000000000000000000, 4.00000000000000000000, 4.00000000000000000000, 4.00000000000000000000, 4.00000000000000000000, 4.00000000000000000000, 4.00000000000000000000, 4.00000000000000000000, 4.00000000000000000000, 1665.00000000000000000000, 1688.00000000000000000000, 0.00000000000000000000
13.00000000000000000000, 0.00000000000000000000, 4062.56400322146280000000, 4716.92296157927470000000, 4232.30758881428120000000, 4632.82039953328600000000, 4278.97425433979880000000, 4797.43578012330000000000, 4280.51271584064030000000, 4299.99989485129570000000, 4473.84604444635720000000, 4896.41013667742120000000, 4517.43578697019260000000, 4170.76912878063100000000, 4599.99988751533970000000, 4292.82040784737000000000, 494.00000000000000000000, 4.00000000000000000000, 4.00000000000000000000, 4.00000000000000000000, 4.00000000000000000000, 4.00000000000000000000, 4.00000000000000000000, 0.00000000000000000000, 0.00000000000000000000, 4.00000000000000000000, 4.00000000000000000000, 4.00000000000000000000, 4.00000000000000000000, 4.00000000000000000000, 4.00000000000000000000, 4.00000000000000000000, 4.00000000000000000000, 1665.00000000000000000000, 1689.00000000000000000000, 0.00000000000000000000
14.00000000000000000000, 0.00000000000000000000, 4061.02554172062170000000, 4714.35885907787270000000, 4234.35887081540300000000, 4629.74347653160380000000, 4278.97425433979880000000, 4798.97424162414150000000, 4279.99989534035920000000, 4301.53835635213730000000, 4474.35886494663740000000, 4900.51270067966380000000, 4513.33322296794900000000, 4171.28194928091120000000, 4601.53834901618120000000, 4290.25630534596800000000, 503.00000000000000000000, 4.00000000000000000000, 4.00000000000000000000, 4.00000000000000000000, 4.00000000000000000000, 4.00000000000000000000, 4.00000000000000000000, 0.00000000000000000000, 0.00000000000000000000, 4.00000000000000000000, 4.00000000000000000000, 4.00000000000000000000, 4.00000000000000000000, 4.00000000000000000000, 4.00000000000000000000, 4.00000000000000000000, 4.00000000000000000000, 1667.00000000000000000000, 1688.00000000000000000000, 0.00000000000000000000
15.00000000000000000000, 0.00000000000000000000, 4058.97425971950000000000, 4718.46142308011620000000, 4232.30758881428120000000, 4630.25629703188410000000, 4282.56399784176210000000, 4799.99988262470200000000, 4278.97425433979880000000, 4297.43579234989370000000, 4475.38450594719870000000, 4903.07680318106580000000, 4512.30758196738860000000, 4168.71784677950930000000, 4603.07681051702180000000, 4291.28194634652850000000, 493.00000000000000000000, 4.00000000000000000000, 4.00000000000000000000, 4.00000000000000000000, 4.00000000000000000000, 4.00000000000000000000, 4.00000000000000000000, 0.00000000000000000000, 0.00000000000000000000, 4.00000000000000000000, 4.00000000000000000000, 4.00000000000000000000, 4.00000000000000000000, 4.00000000000000000000, 4.00000000000000000000, 4.00000000000000000000, 4.00000000000000000000, 1666.00000000000000000000, 1688.00000000000000000000, 0.00000000000000000000
16.00000000000000000000, 0.00000000000000000000, 4059.99990072006090000000, 4718.46142308011620000000, 4230.76912731343960000000, 4632.30757903300580000000, 4285.64092084344430000000, 4800.51270312498310000000, 4278.46143383951860000000, 4295.38451034877200000000, 4471.79476244523540000000, 4895.89731617714010000000, 4510.25629996626690000000, 4168.71784677950930000000, 4599.99988751533970000000, 4289.23066434540670000000, 0.00000000000000000000, 4.00000000000000000000, 4.00000000000000000000, 4.00000000000000000000, 4.00000000000000000000, 4.00000000000000000000, 4.00000000000000000000, 0.00000000000000000000, 0.00000000000000000000, 4.00000000000000000000, 4.00000000000000000000, 4.00000000000000000000, 4.00000000000000000000, 4.00000000000000000000, 4.00000000000000000000, 4.00000000000000000000, 4.00000000000000000000, 1666.00000000000000000000, 1689.00000000000000000000, 0.00000000000000000000
17.00000000000000000000, 0.00000000000000000000, 4059.48708021978020000000, 4712.30757707675090000000, 4232.82040931456140000000, 4633.84604053384740000000, 4281.53835684120080000000, 4801.02552362526330000000, 4277.94861333923840000000, 4298.46143335045510000000, 4467.17937794271170000000, 4889.74347017377570000000, 4508.71783846542530000000, 4170.25630828035080000000, 4601.02552851590100000000, 4289.23066434540670000000, 0.00000000000000000000, 4.00000000000000000000, 4.00000000000000000000, 4.00000000000000000000, 4.00000000000000000000, 4.00000000000000000000, 4.00000000000000000000, 0.00000000000000000000, 0.00000000000000000000, 4.00000000000000000000, 4.00000000000000000000, 4.00000000000000000000, 4.00000000000000000000, 4.00000000000000000000, 4.00000000000000000000, 4.00000000000000000000, 4.00000000000000000000, 1667.00000000000000000000, 1687.00000000000000000000, 0.00000000000000000000
18.00000000000000000000, 0.00000000000000000000, 4058.97425971950000000000, 4706.15373107338560000000, 4233.84605031512180000000, 4631.79475853272560000000, 4277.43579283895720000000, 4798.46142112386130000000, 4279.48707484007900000000, 4299.99989485129570000000, 4470.25630094439480000000, 4892.30757267517770000000, 4508.71783846542530000000, 4168.71784677950930000000, 4600.51270801561990000000, 4291.79476684680960000000, 0.00000000000000000000, 4.00000000000000000000, 4.00000000000000000000, 4.00000000000000000000, 4.00000000000000000000, 4.00000000000000000000, 4.00000000000000000000, 0.00000000000000000000, 0.00000000000000000000, 4.00000000000000000000, 4.00000000000000000000, 4.00000000000000000000, 4.00000000000000000000, 4.00000000000000000000, 4.00000000000000000000, 4.00000000000000000000, 4.00000000000000000000, 1666.00000000000000000000, 1688.00000000000000000000, 0.00000000000000000000
19.00000000000000000000, 0.00000000000000000000, 4060.51272122034110000000, 4706.15373107338560000000, 4233.84605031512180000000, 4624.61527152879990000000, 4278.97425433979880000000, 4795.89731862245940000000, 4279.48707484007900000000, 4298.46143335045510000000, 4475.89732644747890000000, 4895.89731617714010000000, 4507.17937696458470000000, 4172.30759028147170000000, 4597.94860551421790000000, 4291.79476684680960000000, 0.00000000000000000000, 4.00000000000000000000, 4.00000000000000000000, 4.00000000000000000000, 4.00000000000000000000, 4.00000000000000000000, 4.00000000000000000000, 0.00000000000000000000, 0.00000000000000000000, 4.00000000000000000000, 4.00000000000000000000, 4.00000000000000000000, 4.00000000000000000000, 4.00000000000000000000, 4.00000000000000000000, 4.00000000000000000000, 4.00000000000000000000, 1668.00000000000000000000, 1688.00000000000000000000, 0.00000000000000000000
20.00000000000000000000, 0.00000000000000000000, 4058.97425971950000000000, 4711.28193607619050000000, 4234.35887081540300000000, 4623.07681002795830000000, 4278.97425433979880000000, 4795.38449812217820000000, 4277.94861333923840000000, 4298.46143335045510000000, 4477.94860844860070000000, 4895.89731617714010000000, 4507.17937696458470000000, 4180.51271828595870000000, 4601.02552851590100000000, 4292.82040784737000000000, 0.00000000000000000000, 4.00000000000000000000, 4.00000000000000000000, 4.00000000000000000000, 4.00000000000000000000, 4.00000000000000000000, 4.00000000000000000000, 0.00000000000000000000, 0.00000000000000000000, 4.00000000000000000000, 4.00000000000000000000, 4.00000000000000000000, 4.00000000000000000000, 4.00000000000000000000, 4.00000000000000000000, 4.00000000000000000000, 4.00000000000000000000, 1667.00000000000000000000, 1688.00000000000000000000, 0.00000000000000000000
21.00000000000000000000, 0.00000000000000000000, 4056.41015721809800000000, 4707.69219257422720000000, 4233.33322981484160000000, 4629.23065603132360000000, 4278.46143383951860000000, 4796.92295962301980000000, 4279.48707484007900000000, 4298.46143335045510000000, 4479.99989044972240000000, 4901.02552117994490000000, 4508.71783846542530000000, 4177.94861578455680000000, 4596.41014401337720000000, 4289.74348484568780000000, 0.00000000000000000000, 4.00000000000000000000, 4.00000000000000000000, 4.00000000000000000000, 4.00000000000000000000, 4.00000000000000000000, 4.00000000000000000000, 0.00000000000000000000, 0.00000000000000000000, 4.00000000000000000000, 4.00000000000000000000, 4.00000000000000000000, 4.00000000000000000000, 4.00000000000000000000, 4.00000000000000000000, 4.00000000000000000000, 4.00000000000000000000, 1667.00000000000000000000, 1689.00000000000000000000, 0.00000000000000000000
22.00000000000000000000, 0.00000000000000000000, 4050.25631121473270000000, 4699.48706456974110000000, 4230.25630681315940000000, 4626.15373302964140000000, 4278.46143383951860000000, 4795.89731862245940000000, 4280.51271584064030000000, 4296.92297184961350000000, 4480.51271095000270000000, 4905.12808518218750000000, 4508.20501796514510000000, 4167.69220577894790000000, 4585.12809300720800000000, 4279.99989534035920000000, 0.00000000000000000000, 4.00000000000000000000, 4.00000000000000000000, 4.00000000000000000000, 4.00000000000000000000, 4.00000000000000000000, 4.00000000000000000000, 0.00000000000000000000, 0.00000000000000000000, 4.00000000000000000000, 4.00000000000000000000, 4.00000000000000000000, 4.00000000000000000000, 4.00000000000000000000, 4.00000000000000000000, 4.00000000000000000000, 4.00000000000000000000, 1667.00000000000000000000, 1688.00000000000000000000, 0.00000000000000000000
23.00000000000000000000, 0.00000000000000000000, 4042.05118321024610000000, 4699.48706456974110000000, 4226.66656331119610000000, 4616.92296402459400000000, 4275.89733133811660000000, 4793.84603662133760000000, 4281.02553634092060000000, 4294.87168984849180000000, 4476.92296744803930000000, 4897.43577767798160000000, 4505.12809496346290000000, 4166.15374427810730000000, 4583.07681100608620000000, 4276.92297233867700000000, 0.00000000000000000000, 4.00000000000000000000, 4.00000000000000000000, 4.00000000000000000000, 4.00000000000000000000, 4.00000000000000000000, 4.00000000000000000000, 0.00000000000000000000, 0.00000000000000000000, 4.00000000000000000000, 4.00000000000000000000, 4.00000000000000000000, 4.00000000000000000000, 4.00000000000000000000, 4.00000000000000000000, 4.00000000000000000000, 4.00000000000000000000, 1667.00000000000000000000, 1688.00000000000000000000, 0.00000000000000000000
24.00000000000000000000, 0.00000000000000000000, 4047.17938821305050000000, 4706.15373107338560000000, 4226.66656331119610000000, 4622.05116902739790000000, 4275.38451083783550000000, 4794.87167762189800000000, 4281.02553634092060000000, 4297.43579234989370000000, 4475.89732644747890000000, 4892.82039317545790000000, 4506.66655646430350000000, 4168.20502627922910000000, 4586.15373400776840000000, 4279.99989534035920000000, 0.00000000000000000000, 4.00000000000000000000, 4.00000000000000000000, 4.00000000000000000000, 4.00000000000000000000, 4.00000000000000000000, 4.00000000000000000000, 0.00000000000000000000, 0.00000000000000000000, 4.00000000000000000000, 4.00000000000000000000, 4.00000000000000000000, 4.00000000000000000000, 4.00000000000000000000, 4.00000000000000000000, 4.00000000000000000000, 4.00000000000000000000, 1667.00000000000000000000, 1689.00000000000000000000, 0.00000000000000000000
25.00000000000000000000, 0.00000000000000000000, 4056.92297771837820000000, 4711.28193607619050000000, 4232.82040931456140000000, 4629.74347653160380000000, 4278.46143383951860000000, 4796.92295962301980000000, 4278.46143383951860000000, 4299.99989485129570000000, 4475.89732644747890000000, 4895.38449567685980000000, 4509.23065896570640000000, 4168.71784677950930000000, 4586.15373400776840000000, 4281.02553634092060000000, 0.00000000000000000000, 4.00000000000000000000, 4.00000000000000000000, 4.00000000000000000000, 4.00000000000000000000, 4.00000000000000000000, 4.00000000000000000000, 0.00000000000000000000, 0.00000000000000000000, 4.00000000000000000000, 4.00000000000000000000, 4.00000000000000000000, 4.00000000000000000000, 4.00000000000000000000, 4.00000000000000000000, 4.00000000000000000000, 4.00000000000000000000, 1667.00000000000000000000, 1689.00000000000000000000, 0.00000000000000000000
26.00000000000000000000, 0.00000000000000000000, 4051.28195221529360000000, 4712.82039757703110000000, 4234.87169131568320000000, 4627.69219453048210000000, 4281.02553634092060000000, 4796.41013912273960000000, 4275.89733133811660000000, 4297.43579234989370000000, 4475.38450594719870000000, 4895.89731617714010000000, 4509.74347946598660000000, 4171.28194928091120000000, 4586.66655450804860000000, 4281.02553634092060000000, 0.00000000000000000000, 4.00000000000000000000, 4.00000000000000000000, 4.00000000000000000000, 4.00000000000000000000, 4.00000000000000000000, 4.00000000000000000000, 0.00000000000000000000, 0.00000000000000000000, 4.00000000000000000000, 4.00000000000000000000, 4.00000000000000000000, 4.00000000000000000000, 4.00000000000000000000, 4.00000000000000000000, 4.00000000000000000000, 4.00000000000000000000, 1666.00000000000000000000, 1688.00000000000000000000, 0.00000000000000000000
27.00000000000000000000, 0.00000000000000000000, 4047.69220871333070000000, 4714.35885907787270000000, 4231.79476831400010000000, 4629.23065603132360000000, 4280.51271584064030000000, 4795.89731862245940000000, 4278.97425433979880000000, 4295.89733084905220000000, 4472.82040344579670000000, 4892.30757267517770000000, 4507.69219746486490000000, 4169.74348778006970000000, 4586.15373400776840000000, 4282.56399784176210000000, 0.00000000000000000000, 4.00000000000000000000, 4.00000000000000000000, 4.00000000000000000000, 4.00000000000000000000, 4.00000000000000000000, 4.00000000000000000000, 0.00000000000000000000, 0.00000000000000000000, 4.00000000000000000000, 4.00000000000000000000, 4.00000000000000000000, 4.00000000000000000000, 4.00000000000000000000, 4.00000000000000000000, 4.00000000000000000000, 4.00000000000000000000, 1667.00000000000000000000, 1689.00000000000000000000, 0.00000000000000000000
28.00000000000000000000, 0.00000000000000000000, 4057.94861871893910000000, 4716.41014107899450000000, 4238.46143481764560000000, 4634.35886103412760000000, 4278.97425433979880000000, 4795.89731862245940000000, 4280.51271584064030000000, 4298.46143335045510000000, 4471.28194194495520000000, 4890.25629067405590000000, 4509.74347946598660000000, 4171.79476978119150000000, 4585.12809300720800000000, 4286.66656184400470000000, 0.00000000000000000000, 4.00000000000000000000, 4.00000000000000000000, 4.00000000000000000000, 4.00000000000000000000, 4.00000000000000000000, 4.00000000000000000000, 0.00000000000000000000, 0.00000000000000000000, 4.00000000000000000000, 4.00000000000000000000, 4.00000000000000000000, 4.00000000000000000000, 4.00000000000000000000, 4.00000000000000000000, 4.00000000000000000000, 4.00000000000000000000, 1668.00000000000000000000, 1688.00000000000000000000, 0.00000000000000000000
29.00000000000000000000, 0.00000000000000000000, 4064.10246472230390000000, 4719.48706408067660000000, 4247.17938332241280000000, 4634.35886103412760000000, 4278.97425433979880000000, 4793.84603662133760000000, 4277.43579283895720000000, 4299.48707435101550000000, 4474.35886494663740000000, 4893.33321367573810000000, 4515.89732546935100000000, 4182.56400028708050000000, 4586.15373400776840000000, 4290.76912584624820000000, 0.00000000000000000000, 4.00000000000000000000, 4.00000000000000000000, 4.00000000000000000000, 4.00000000000000000000, 4.00000000000000000000, 4.00000000000000000000, 0.00000000000000000000, 0.00000000000000000000, 4.00000000000000000000, 4.00000000000000000000, 4.00000000000000000000, 4.00000000000000000000, 4.00000000000000000000, 4.00000000000000000000, 4.00000000000000000000, 4.00000000000000000000, 1666.00000000000000000000, 1691.00000000000000000000, 0.00000000000000000000
30.00000000000000000000, 0.00000000000000000000, 4062.56400322146280000000, 4719.99988458095780000000, 4246.15374232185240000000, 4635.89732253496910000000, 4280.51271584064030000000, 4794.35885712161780000000, 4276.41015183839680000000, 4296.41015134933330000000, 4474.35886494663740000000, 4894.35885467629940000000, 4514.87168446879060000000, 4187.17938478960420000000, 4586.66655450804860000000, 4292.30758734708980000000, 0.00000000000000000000, 4.00000000000000000000, 4.00000000000000000000, 4.00000000000000000000, 4.00000000000000000000, 4.00000000000000000000, 4.00000000000000000000, 0.00000000000000000000, 0.00000000000000000000, 4.00000000000000000000, 4.00000000000000000000, 4.00000000000000000000, 4.00000000000000000000, 4.00000000000000000000, 4.00000000000000000000, 4.00000000000000000000, 4.00000000000000000000, 1668.00000000000000000000, 1690.00000000000000000000, 0.00000000000000000000
31.00000000000000000000, 0.00000000000000000000, 4062.56400322146280000000, 4724.61526908348150000000, 4244.61528082101090000000, 4641.02552753777310000000, 4282.05117734148100000000, 4796.92295962301980000000, 4280.51271584064030000000, 4295.38451034877200000000, 4470.76912144467500000000, 4889.23064967349460000000, 4509.74347946598660000000, 4179.99989778567850000000, 4587.69219550861000000000, 4293.33322834765020000000, 0.00000000000000000000, 4.00000000000000000000, 4.00000000000000000000, 4.00000000000000000000, 4.00000000000000000000, 4.00000000000000000000, 4.00000000000000000000, 0.00000000000000000000, 0.00000000000000000000, 4.00000000000000000000, 4.00000000000000000000, 4.00000000000000000000, 4.00000000000000000000, 4.00000000000000000000, 4.00000000000000000000, 4.00000000000000000000, 4.00000000000000000000, 1668.00000000000000000000, 1691.00000000000000000000, 0.00000000000000000000
32.00000000000000000000, 0.00000000000000000000, 4061.02554172062170000000, 4729.74347408628550000000, 4243.58963982045040000000, 4642.05116853833440000000, 4284.10245934260270000000, 4796.41013912273960000000, 4280.51271584064030000000, 4299.48707435101550000000, 4470.76912144467500000000, 4889.74347017377570000000, 4509.74347946598660000000, 4177.43579528427650000000, 4589.23065700945060000000, 4294.87168984849180000000, 0.00000000000000000000, 4.00000000000000000000, 4.00000000000000000000, 4.00000000000000000000, 4.00000000000000000000, 4.00000000000000000000, 4.00000000000000000000, 0.00000000000000000000, 0.00000000000000000000, 4.00000000000000000000, 4.00000000000000000000, 4.00000000000000000000, 4.00000000000000000000, 4.00000000000000000000, 4.00000000000000000000, 4.00000000000000000000, 4.00000000000000000000, 1670.00000000000000000000, 1691.00000000000000000000, 0.00000000000000000000
33.00000000000000000000, 0.00000000000000000000, 4059.48708021978020000000, 4724.61526908348150000000, 4237.94861431736540000000, 4639.48706603693150000000, 4283.58963884232250000000, 4795.38449812217820000000, 4277.94861333923840000000, 4301.53835635213730000000, 4474.87168544691850000000, 4898.46141867854200000000, 4507.17937696458470000000, 4179.99989778567850000000, 4586.66655450804860000000, 4290.25630534596800000000, 0.00000000000000000000, 4.00000000000000000000, 4.00000000000000000000, 4.00000000000000000000, 4.00000000000000000000, 4.00000000000000000000, 4.00000000000000000000, 0.00000000000000000000, 0.00000000000000000000, 4.00000000000000000000, 4.00000000000000000000, 4.00000000000000000000, 4.00000000000000000000, 4.00000000000000000000, 4.00000000000000000000, 4.00000000000000000000, 4.00000000000000000000, 1669.00000000000000000000, 1691.00000000000000000000, 0.00000000000000000000
34.00000000000000000000, 0.00000000000000000000, 4061.02554172062170000000, 4715.38450007843400000000, 4231.28194781371990000000, 4634.35886103412760000000, 4280.51271584064030000000, 4797.94860062358110000000, 4277.94861333923840000000, 4297.94861285017400000000, 4473.33322394607690000000, 4897.94859817826180000000, 4509.23065896570640000000, 4180.51271828595870000000, 4583.58963150636650000000, 4283.58963884232250000000, 0.00000000000000000000, 4.00000000000000000000, 4.00000000000000000000, 4.00000000000000000000, 4.00000000000000000000, 4.00000000000000000000, 4.00000000000000000000, 0.00000000000000000000, 0.00000000000000000000, 4.00000000000000000000, 4.00000000000000000000, 4.00000000000000000000, 4.00000000000000000000, 4.00000000000000000000, 4.00000000000000000000, 4.00000000000000000000, 4.00000000000000000000, 1669.00000000000000000000, 1692.00000000000000000000, 0.00000000000000000000
35.00000000000000000000, 0.00000000000000000000, 4062.05118272118260000000, 4716.92296157927470000000, 4233.33322981484160000000, 4630.76911753216520000000, 4279.48707484007900000000, 4797.94860062358110000000, 4281.02553634092060000000, 4295.89733084905220000000, 4473.33322394607690000000, 4893.33321367573810000000, 4517.43578697019260000000, 4178.46143628483700000000, 4586.15373400776840000000, 4284.10245934260270000000, 0.00000000000000000000, 4.00000000000000000000, 4.00000000000000000000, 4.00000000000000000000, 4.00000000000000000000, 4.00000000000000000000, 4.00000000000000000000, 0.00000000000000000000, 0.00000000000000000000, 4.00000000000000000000, 4.00000000000000000000, 4.00000000000000000000, 4.00000000000000000000, 4.00000000000000000000, 4.00000000000000000000, 4.00000000000000000000, 4.00000000000000000000, 1670.00000000000000000000, 1691.00000000000000000000, 0.00000000000000000000
36.00000000000000000000, 0.00000000000000000000, 4059.99990072006090000000, 4723.07680758264000000000, 4242.05117831960890000000, 4631.79475853272560000000, 4281.02553634092060000000, 4796.41013912273960000000, 4283.07681834204230000000, 4298.46143335045510000000, 4476.41014694775910000000, 4892.30757267517770000000, 4515.38450496907080000000, 4176.41015428371520000000, 4585.64091350748820000000, 4288.20502334484630000000, 0.00000000000000000000, 4.00000000000000000000, 4.00000000000000000000, 4.00000000000000000000, 4.00000000000000000000, 4.00000000000000000000, 4.00000000000000000000, 0.00000000000000000000, 0.00000000000000000000, 4.00000000000000000000, 4.00000000000000000000, 4.00000000000000000000, 4.00000000000000000000, 4.00000000000000000000, 4.00000000000000000000, 4.00000000000000000000, 4.00000000000000000000, 1671.00000000000000000000, 1692.00000000000000000000, 0.00000000000000000000
37.00000000000000000000, 0.00000000000000000000, 4059.48708021978020000000, 4722.05116658207860000000, 4250.76912682437610000000, 4636.92296353552960000000, 4281.53835684120080000000, 4796.92295962301980000000, 4283.58963884232250000000, 4299.48707435101550000000, 4468.71783944355320000000, 4889.74347017377570000000, 4506.66655646430350000000, 4177.43579528427650000000, 4581.02552900496450000000, 4291.28194634652850000000, 0.00000000000000000000, 4.00000000000000000000, 4.00000000000000000000, 4.00000000000000000000, 4.00000000000000000000, 4.00000000000000000000, 4.00000000000000000000, 0.00000000000000000000, 0.00000000000000000000, 4.00000000000000000000, 4.00000000000000000000, 4.00000000000000000000, 4.00000000000000000000, 4.00000000000000000000, 4.00000000000000000000, 4.00000000000000000000, 4.00000000000000000000, 1671.00000000000000000000, 1691.00000000000000000000, 0.00000000000000000000
38.00000000000000000000, 0.00000000000000000000, 4066.66656722370640000000, 4717.94860257983600000000, 4255.38451132689990000000, 4643.07680953889480000000, 4282.56399784176210000000, 4796.92295962301980000000, 4283.58963884232250000000, 4297.43579234989370000000, 4461.53835243962750000000, 4891.79475217489740000000, 4508.71783846542530000000, 4184.10246178792200000000, 4584.10245200664670000000, 4295.38451034877200000000, 0.00000000000000000000, 4.00000000000000000000, 4.00000000000000000000, 4.00000000000000000000, 4.00000000000000000000, 4.00000000000000000000, 4.00000000000000000000, 0.00000000000000000000, 0.00000000000000000000, 4.00000000000000000000, 4.00000000000000000000, 4.00000000000000000000, 4.00000000000000000000, 4.00000000000000000000, 4.00000000000000000000, 4.00000000000000000000, 4.00000000000000000000, 1670.00000000000000000000, 1692.00000000000000000000, 0.00000000000000000000
39.00000000000000000000, 0.00000000000000000000, 4069.23066972510830000000, 4720.51270508123800000000, 4255.38451132689990000000, 4643.07680953889480000000, 4285.12810034316410000000, 4796.92295962301980000000, 4279.99989534035920000000, 4297.94861285017400000000, 4467.69219844299190000000, 4893.33321367573810000000, 4512.82040246766880000000, 4186.66656428932400000000, 4588.20501600889020000000, 4297.43579234989370000000, 0.00000000000000000000, 4.00000000000000000000, 4.00000000000000000000, 4.00000000000000000000, 4.00000000000000000000, 4.00000000000000000000, 4.00000000000000000000, 0.00000000000000000000, 0.00000000000000000000, 4.00000000000000000000, 4.00000000000000000000, 4.00000000000000000000, 4.00000000000000000000, 4.00000000000000000000, 4.00000000000000000000, 4.00000000000000000000, 4.00000000000000000000, 1672.00000000000000000000, 1690.00000000000000000000, 0.00000000000000000000
40.00000000000000000000, 0.00000000000000000000, 4061.53836222090190000000, 4722.05116658207860000000, 4252.30758832521680000000, 4636.41014303524930000000, 4284.10245934260270000000, 4798.46142112386130000000, 4277.43579283895720000000, 4297.94861285017400000000, 4471.79476244523540000000, 4883.58962417041040000000, 4504.10245396290160000000, 4177.94861578455680000000, 4576.92296500272100000000, 4289.74348484568780000000, 0.00000000000000000000, 4.00000000000000000000, 4.00000000000000000000, 4.00000000000000000000, 4.00000000000000000000, 4.00000000000000000000, 4.00000000000000000000, 0.00000000000000000000, 0.00000000000000000000, 4.00000000000000000000, 4.00000000000000000000, 4.00000000000000000000, 4.00000000000000000000, 4.00000000000000000000, 4.00000000000000000000, 4.00000000000000000000, 4.00000000000000000000, 1670.00000000000000000000, 1690.00000000000000000000, 0.00000000000000000000
41.00000000000000000000, 0.00000000000000000000, 4057.43579821865890000000, 4714.35885907787270000000, 4247.17938332241280000000, 4627.69219453048210000000, 4281.02553634092060000000, 4797.94860062358110000000, 4280.51271584064030000000, 4296.92297184961350000000, 4469.23065994383340000000, 4877.94859866732530000000, 4494.87168495785410000000, 4172.30759028147170000000, 4563.07681149514970000000, 4278.97425433979880000000, 0.00000000000000000000, 4.00000000000000000000, 4.00000000000000000000, 4.00000000000000000000, 4.00000000000000000000, 4.00000000000000000000, 4.00000000000000000000, 0.00000000000000000000, 0.00000000000000000000, 4.00000000000000000000, 4.00000000000000000000, 4.00000000000000000000, 4.00000000000000000000, 4.00000000000000000000, 4.00000000000000000000, 4.00000000000000000000, 4.00000000000000000000, 1672.00000000000000000000, 1688.00000000000000000000, 0.00000000000000000000
42.00000000000000000000, 0.00000000000000000000, 4057.43579821865890000000, 4709.23065407506870000000, 4245.12810132129110000000, 4624.10245102851970000000, 4278.97425433979880000000, 4795.38449812217820000000, 4282.56399784176210000000, 4295.89733084905220000000, 4470.25630094439480000000, 4889.23064967349460000000, 4501.02553096121940000000, 4178.97425678511720000000, 4571.28193949963680000000, 4277.94861333923840000000, 0.00000000000000000000, 4.00000000000000000000, 4.00000000000000000000, 4.00000000000000000000, 4.00000000000000000000, 4.00000000000000000000, 4.00000000000000000000, 0.00000000000000000000, 0.00000000000000000000, 4.00000000000000000000, 4.00000000000000000000, 4.00000000000000000000, 4.00000000000000000000, 4.00000000000000000000, 4.00000000000000000000, 4.00000000000000000000, 4.00000000000000000000, 1671.00000000000000000000, 1689.00000000000000000000, 0.00000000000000000000
43.00000000000000000000, 0.00000000000000000000, 4062.05118272118260000000, 4718.46142308011620000000, 4247.17938332241280000000, 4630.76911753216520000000, 4279.48707484007900000000, 4795.89731862245940000000, 4278.46143383951860000000, 4295.89733084905220000000, 4476.41014694775910000000, 4903.58962368134690000000, 4516.92296646991240000000, 4189.74348729100620000000, 4588.20501600889020000000, 4290.25630534596800000000, 0.00000000000000000000, 4.00000000000000000000, 4.00000000000000000000, 4.00000000000000000000, 4.00000000000000000000, 4.00000000000000000000, 4.00000000000000000000, 0.00000000000000000000, 0.00000000000000000000, 4.00000000000000000000, 4.00000000000000000000, 4.00000000000000000000, 4.00000000000000000000, 4.00000000000000000000, 4.00000000000000000000, 4.00000000000000000000, 4.00000000000000000000, 1672.00000000000000000000, 1690.00000000000000000000, 0.00000000000000000000
44.00000000000000000000, 0.00000000000000000000, 4072.30759272679100000000, 4728.20501258544390000000, 4251.28194732465640000000, 4638.46142503637110000000, 4283.07681834204230000000, 4798.46142112386130000000, 4278.46143383951860000000, 4296.41015134933330000000, 4473.84604444635720000000, 4905.64090568246870000000, 4526.15373547495980000000, 4191.79476929212800000000, 4592.30758001113370000000, 4303.07681785297880000000, 0.00000000000000000000, 4.00000000000000000000, 4.00000000000000000000, 4.00000000000000000000, 4.00000000000000000000, 4.00000000000000000000, 4.00000000000000000000, 0.00000000000000000000, 0.00000000000000000000, 4.00000000000000000000, 4.00000000000000000000, 4.00000000000000000000, 4.00000000000000000000, 4.00000000000000000000, 4.00000000000000000000, 4.00000000000000000000, 4.00000000000000000000, 1670.00000000000000000000, 1688.00000000000000000000, 0.00000000000000000000
45.00000000000000000000, 0.00000000000000000000, 4072.30759272679100000000, 4726.66655108460240000000, 4249.74348582381480000000, 4637.94860453609090000000, 4283.07681834204230000000, 4797.43578012330000000000, 4280.51271584064030000000, 4296.92297184961350000000, 4464.10245494102950000000, 4896.92295717770140000000, 4523.07681247327760000000, 4186.66656428932400000000, 4584.10245200664670000000, 4299.99989485129570000000, 0.00000000000000000000, 4.00000000000000000000, 4.00000000000000000000, 4.00000000000000000000, 4.00000000000000000000, 4.00000000000000000000, 4.00000000000000000000, 0.00000000000000000000, 0.00000000000000000000, 4.00000000000000000000, 4.00000000000000000000, 4.00000000000000000000, 4.00000000000000000000, 4.00000000000000000000, 4.00000000000000000000, 4.00000000000000000000, 4.00000000000000000000, 1670.00000000000000000000, 1689.00000000000000000000, 0.00000000000000000000
46.00000000000000000000, 0.00000000000000000000, 4061.53836222090190000000, 4719.99988458095780000000, 4244.10246032073060000000, 4635.89732253496910000000, 4278.97425433979880000000, 4794.87167762189800000000, 4282.56399784176210000000, 4297.94861285017400000000, 4462.56399344018790000000, 4892.30757267517770000000, 4512.82040246766880000000, 4184.61528228820230000000, 4575.89732400216050000000, 4288.71784384512650000000, 0.00000000000000000000, 4.00000000000000000000, 4.00000000000000000000, 4.00000000000000000000, 4.00000000000000000000, 4.00000000000000000000, 4.00000000000000000000, 0.00000000000000000000, 0.00000000000000000000, 4.00000000000000000000, 4.00000000000000000000, 4.00000000000000000000, 4.00000000000000000000, 4.00000000000000000000, 4.00000000000000000000, 4.00000000000000000000, 4.00000000000000000000, 1670.00000000000000000000, 1688.00000000000000000000, 0.00000000000000000000
47.00000000000000000000, 0.00000000000000000000, 4058.46143921921930000000, 4723.07680758264000000000, 4244.10246032073060000000, 4642.05116853833440000000, 4283.58963884232250000000, 4796.92295962301980000000, 4281.53835684120080000000, 4297.43579234989370000000, 4470.76912144467500000000, 4895.38449567685980000000, 4506.66655646430350000000, 4184.61528228820230000000, 4578.46142650356250000000, 4287.17938234428580000000, 0.00000000000000000000, 4.00000000000000000000, 4.00000000000000000000, 4.00000000000000000000, 4.00000000000000000000, 4.00000000000000000000, 4.00000000000000000000, 0.00000000000000000000, 0.00000000000000000000, 4.00000000000000000000, 4.00000000000000000000, 4.00000000000000000000, 4.00000000000000000000, 4.00000000000000000000, 4.00000000000000000000, 4.00000000000000000000, 4.00000000000000000000, 1669.00000000000000000000, 1687.00000000000000000000, 0.00000000000000000000
48.00000000000000000000, 0.00000000000000000000, 4062.05118272118260000000, 4733.33321758824790000000, 4243.58963982045040000000, 4646.15373254057700000000, 4293.33322834765020000000, 4799.48706212442180000000, 4277.94861333923840000000, 4297.43579234989370000000, 4474.35886494663740000000, 4894.35885467629940000000, 4508.71783846542530000000, 4180.51271828595870000000, 4585.64091350748820000000, 4288.71784384512650000000, 0.00000000000000000000, 4.00000000000000000000, 4.00000000000000000000, 4.00000000000000000000, 4.00000000000000000000, 4.00000000000000000000, 4.00000000000000000000, 0.00000000000000000000, 0.00000000000000000000, 4.00000000000000000000, 4.00000000000000000000, 4.00000000000000000000, 4.00000000000000000000, 4.00000000000000000000, 4.00000000000000000000, 4.00000000000000000000, 4.00000000000000000000, 1669.00000000000000000000, 1687.00000000000000000000, 0.00000000000000000000
49.00000000000000000000, 0.00000000000000000000, 4065.12810572286480000000, 4736.92296109021120000000, 4243.07681932016930000000, 4642.05116853833440000000, 4295.38451034877200000000, 4798.97424162414150000000, 4277.43579283895720000000, 4297.43579234989370000000, 4474.87168544691850000000, 4891.79475217489740000000, 4508.71783846542530000000, 4177.94861578455680000000, 4583.58963150636650000000, 4287.69220284456610000000, 0.00000000000000000000, 4.00000000000000000000, 4.00000000000000000000, 4.00000000000000000000, 4.00000000000000000000, 4.00000000000000000000, 4.00000000000000000000, 0.00000000000000000000, 0.00000000000000000000, 4.00000000000000000000, 4.00000000000000000000, 4.00000000000000000000, 4.00000000000000000000, 4.00000000000000000000, 4.00000000000000000000, 4.00000000000000000000, 4.00000000000000000000, 1669.00000000000000000000, 1689.00000000000000000000, 0.00000000000000000000
50.00000000000000000000, 0.00000000000000000000, 4065.64092622314550000000, 4727.69219208516370000000, 4246.66656282213260000000, 4637.43578403580980000000, 4288.20502334484630000000, 4797.94860062358110000000, 4278.46143383951860000000, 4296.41015134933330000000, 4471.79476244523540000000, 4892.82039317545790000000, 4504.61527446318270000000, 4182.56400028708050000000, 4576.41014450244070000000, 4292.30758734708980000000, 0.00000000000000000000, 4.00000000000000000000, 4.00000000000000000000, 4.00000000000000000000, 4.00000000000000000000, 4.00000000000000000000, 4.00000000000000000000, 0.00000000000000000000, 0.00000000000000000000, 4.00000000000000000000, 4.00000000000000000000, 4.00000000000000000000, 4.00000000000000000000, 4.00000000000000000000, 4.00000000000000000000, 4.00000000000000000000, 4.00000000000000000000, 1669.00000000000000000000, 1688.00000000000000000000, 0.00000000000000000000
51.00000000000000000000, 0.00000000000000000000, 4061.53836222090190000000, 4718.46142308011620000000, 4248.71784482325440000000, 4636.41014303524930000000, 4282.05117734148100000000, 4796.41013912273960000000, 4278.46143383951860000000, 4297.43579234989370000000, 4464.10245494102950000000, 4891.28193167461630000000, 4507.69219746486490000000, 4183.58964128764090000000, 4573.33322150075860000000, 4294.35886934821160000000, 0.00000000000000000000, 4.00000000000000000000, 4.00000000000000000000, 4.00000000000000000000, 4.00000000000000000000, 4.00000000000000000000, 4.00000000000000000000, 0.00000000000000000000, 0.00000000000000000000, 4.00000000000000000000, 4.00000000000000000000, 4.00000000000000000000, 4.00000000000000000000, 4.00000000000000000000, 4.00000000000000000000, 4.00000000000000000000, 4.00000000000000000000, 1668.00000000000000000000, 1689.00000000000000000000, 0.00000000000000000000
52.00000000000000000000, 0.00000000000000000000, 4060.51272122034110000000, 4722.56398708235970000000, 4246.66656282213260000000, 4642.05116853833440000000, 4281.02553634092060000000, 4794.35885712161780000000, 4277.94861333923840000000, 4296.92297184961350000000, 4464.61527544130970000000, 4888.71782917321430000000, 4511.28194096682730000000, 4183.58964128764090000000, 4570.25629849907550000000, 4292.82040784737000000000, 0.00000000000000000000, 4.00000000000000000000, 4.00000000000000000000, 4.00000000000000000000, 4.00000000000000000000, 4.00000000000000000000, 4.00000000000000000000, 0.00000000000000000000, 0.00000000000000000000, 4.00000000000000000000, 4.00000000000000000000, 4.00000000000000000000, 4.00000000000000000000, 4.00000000000000000000, 4.00000000000000000000, 4.00000000000000000000, 4.00000000000000000000, 1669.00000000000000000000, 1689.00000000000000000000, 0.00000000000000000000
53.00000000000000000000, 0.00000000000000000000, 4066.15374672342570000000, 4730.25629458656570000000, 4246.15374232185240000000, 4645.64091204029680000000, 4286.15374134372450000000, 4796.92295962301980000000, 4279.48707484007900000000, 4296.41015134933330000000, 4471.79476244523540000000, 4892.82039317545790000000, 4508.71783846542530000000, 4186.15374378904290000000, 4570.76911899935570000000, 4294.35886934821160000000, 0.00000000000000000000, 4.00000000000000000000, 4.00000000000000000000, 4.00000000000000000000, 4.00000000000000000000, 4.00000000000000000000, 4.00000000000000000000, 0.00000000000000000000, 0.00000000000000000000, 4.00000000000000000000, 4.00000000000000000000, 4.00000000000000000000, 4.00000000000000000000, 4.00000000000000000000, 4.00000000000000000000, 4.00000000000000000000, 4.00000000000000000000, 1667.00000000000000000000, 1688.00000000000000000000, 0.00000000000000000000
54.00000000000000000000, 0.00000000000000000000, 4067.17938772398660000000, 4727.69219208516370000000, 4248.20502432297420000000, 4643.07680953889480000000, 4290.25630534596800000000, 4804.61526712722570000000, 4278.97425433979880000000, 4297.94861285017400000000, 4473.33322394607690000000, 4899.99988017938360000000, 4507.69219746486490000000, 4185.64092328876270000000, 4581.02552900496450000000, 4293.84604884793040000000, 0.00000000000000000000, 4.00000000000000000000, 4.00000000000000000000, 4.00000000000000000000, 4.00000000000000000000, 4.00000000000000000000, 4.00000000000000000000, 0.00000000000000000000, 0.00000000000000000000, 4.00000000000000000000, 4.00000000000000000000, 4.00000000000000000000, 4.00000000000000000000, 4.00000000000000000000, 4.00000000000000000000, 4.00000000000000000000, 4.00000000000000000000, 1667.00000000000000000000, 1689.00000000000000000000, 0.00000000000000000000
55.00000000000000000000, 0.00000000000000000000, 4065.12810572286480000000, 4725.12808958376170000000, 4246.15374232185240000000, 4641.02552753777310000000, 4290.76912584624820000000, 4804.10244662694550000000, 4278.97425433979880000000, 4298.97425385073530000000, 4472.30758294551560000000, 4899.99988017938360000000, 4512.30758196738860000000, 4185.12810278848250000000, 4585.64091350748820000000, 4292.30758734708980000000, 0.00000000000000000000, 4.00000000000000000000, 4.00000000000000000000, 4.00000000000000000000, 4.00000000000000000000, 4.00000000000000000000, 4.00000000000000000000, 0.00000000000000000000, 0.00000000000000000000, 4.00000000000000000000, 4.00000000000000000000, 4.00000000000000000000, 4.00000000000000000000, 4.00000000000000000000, 4.00000000000000000000, 4.00000000000000000000, 4.00000000000000000000, 1666.00000000000000000000, 1689.00000000000000000000, 0.00000000000000000000
56.00000000000000000000, 0.00000000000000000000, 4069.74349022538850000000, 4732.30757658768740000000, 4244.61528082101090000000, 4647.69219404141860000000, 4291.28194634652850000000, 4797.43578012330000000000, 4280.51271584064030000000, 4297.94861285017400000000, 4473.84604444635720000000, 4894.35885467629940000000, 4515.89732546935100000000, 4193.84605129324970000000, 4578.97424700384270000000, 4297.94861285017400000000, 0.00000000000000000000, 4.00000000000000000000, 4.00000000000000000000, 4.00000000000000000000, 4.00000000000000000000, 4.00000000000000000000, 4.00000000000000000000, 0.00000000000000000000, 0.00000000000000000000, 4.00000000000000000000, 4.00000000000000000000, 4.00000000000000000000, 4.00000000000000000000, 4.00000000000000000000, 4.00000000000000000000, 4.00000000000000000000, 4.00000000000000000000, 1666.00000000000000000000, 1690.00000000000000000000, 0.00000000000000000000
57.00000000000000000000, 0.00000000000000000000, 4073.84605422763210000000, 4731.28193558712610000000, 4247.17938332241280000000, 4649.23065554226010000000, 4286.66656184400470000000, 4797.43578012330000000000, 4278.97425433979880000000, 4296.92297184961350000000, 4472.82040344579670000000, 4892.82039317545790000000, 4511.28194096682730000000, 4195.89733329437150000000, 4572.82040100047740000000, 4301.02553585185710000000, 0.00000000000000000000, 4.00000000000000000000, 4.00000000000000000000, 4.00000000000000000000, 4.00000000000000000000, 4.00000000000000000000, 4.00000000000000000000, 0.00000000000000000000, 0.00000000000000000000, 4.00000000000000000000, 4.00000000000000000000, 4.00000000000000000000, 4.00000000000000000000, 4.00000000000000000000, 4.00000000000000000000, 4.00000000000000000000, 4.00000000000000000000, 1668.00000000000000000000, 1690.00000000000000000000, 0.00000000000000000000
58.00000000000000000000, 0.00000000000000000000, 4068.71784922482770000000, 4718.97424358039640000000, 4246.66656282213260000000, 4641.02552753777310000000, 4282.56399784176210000000, 4799.99988262470200000000, 4277.94861333923840000000, 4295.89733084905220000000, 4470.76912144467500000000, 4893.33321367573810000000, 4506.15373596402330000000, 4185.64092328876270000000, 4572.30758050019720000000, 4294.87168984849180000000, 0.00000000000000000000, 4.00000000000000000000, 4.00000000000000000000, 4.00000000000000000000, 4.00000000000000000000, 4.00000000000000000000, 4.00000000000000000000, 0.00000000000000000000, 0.00000000000000000000, 4.00000000000000000000, 4.00000000000000000000, 4.00000000000000000000, 4.00000000000000000000, 4.00000000000000000000, 4.00000000000000000000, 4.00000000000000000000, 4.00000000000000000000, 1666.00000000000000000000, 1690.00000000000000000000, 0.00000000000000000000
59.00000000000000000000, 0.00000000000000000000, 4063.58964422202370000000, 4717.94860257983600000000, 4241.02553731904750000000, 4639.48706603693150000000, 4286.15374134372450000000, 4798.97424162414150000000, 4281.53835684120080000000, 4297.43579234989370000000, 4472.30758294551560000000, 4891.79475217489740000000, 4507.17937696458470000000, 4182.05117978680030000000, 4571.28193949963680000000, 4294.35886934821160000000, 0.00000000000000000000, 4.00000000000000000000, 4.00000000000000000000, 4.00000000000000000000, 4.00000000000000000000, 4.00000000000000000000, 4.00000000000000000000, 0.00000000000000000000, 0.00000000000000000000, 4.00000000000000000000, 4.00000000000000000000, 4.00000000000000000000, 4.00000000000000000000, 4.00000000000000000000, 4.00000000000000000000, 4.00000000000000000000, 4.00000000000000000000, 1667.00000000000000000000, 1689.00000000000000000000, 0.00000000000000000000
60.00000000000000000000, 0.00000000000000000000, 4066.66656722370640000000, 4727.69219208516370000000, 4243.07681932016930000000, 4639.99988653721270000000, 4291.28194634652850000000, 4799.99988262470200000000, 4282.05117734148100000000, 4297.94861285017400000000, 4474.35886494663740000000, 4893.33321367573810000000, 4509.23065896570640000000, 4186.15374378904290000000, 4570.25629849907550000000, 4297.43579234989370000000, 0.00000000000000000000, 4.00000000000000000000, 4.00000000000000000000, 4.00000000000000000000, 4.00000000000000000000, 4.00000000000000000000, 4.00000000000000000000, 0.00000000000000000000, 0.00000000000000000000, 4.00000000000000000000, 4.00000000000000000000, 4.00000000000000000000, 4.00000000000000000000, 4.00000000000000000000, 4.00000000000000000000, 4.00000000000000000000, 4.00000000000000000000, 1668.00000000000000000000, 1690.00000000000000000000, 0.00000000000000000000
61.00000000000000000000, 0.00000000000000000000, 4068.71784922482770000000, 4728.71783308572410000000, 4245.64092182157130000000, 4639.99988653721270000000, 4288.71784384512650000000, 4802.56398512610490000000, 4278.46143383951860000000, 4295.89733084905220000000, 4469.74348044411360000000, 4894.87167517657960000000, 4507.17937696458470000000, 4185.64092328876270000000, 4568.71783699823390000000, 4291.28194634652850000000, 0.00000000000000000000, 4.00000000000000000000, 4.00000000000000000000, 4.00000000000000000000, 4.00000000000000000000, 4.00000000000000000000, 4.00000000000000000000, 0.00000000000000000000, 0.00000000000000000000, 4.00000000000000000000, 4.00000000000000000000, 4.00000000000000000000, 4.00000000000000000000, 4.00000000000000000000, 4.00000000000000000000, 4.00000000000000000000, 4.00000000000000000000, 1669.00000000000000000000, 1689.00000000000000000000, 0.00000000000000000000
62.00000000000000000000, 0.00000000000000000000, 4062.05118272118260000000, 4725.12808958376170000000, 4236.41015281652380000000, 4642.56398903861460000000, 4282.56399784176210000000, 4800.51270312498310000000, 4275.89733133811660000000, 4298.46143335045510000000, 4463.07681394046810000000, 4891.28193167461630000000, 4503.07681296234110000000, 4180.51271828595870000000, 4567.69219599767350000000, 4283.07681834204230000000, 0.00000000000000000000, 4.00000000000000000000, 4.00000000000000000000, 4.00000000000000000000, 4.00000000000000000000, 4.00000000000000000000, 4.00000000000000000000, 0.00000000000000000000, 0.00000000000000000000, 4.00000000000000000000, 4.00000000000000000000, 4.00000000000000000000, 4.00000000000000000000, 4.00000000000000000000, 4.00000000000000000000, 4.00000000000000000000, 4.00000000000000000000, 1670.00000000000000000000, 1690.00000000000000000000, 0.00000000000000000000
63.00000000000000000000, 0.00000000000000000000, 4058.97425971950000000000, 4728.20501258544390000000, 4227.17938381147630000000, 4643.07680953889480000000, 4283.58963884232250000000, 4799.99988262470200000000, 4280.51271584064030000000, 4299.99989485129570000000, 4462.56399344018790000000, 4888.71782917321430000000, 4503.58963346262140000000, 4180.51271828595870000000, 4568.20501649795370000000, 4285.64092084344430000000, 0.00000000000000000000, 4.00000000000000000000, 4.00000000000000000000, 4.00000000000000000000, 4.00000000000000000000, 4.00000000000000000000, 4.00000000000000000000, 0.00000000000000000000, 0.00000000000000000000, 4.00000000000000000000, 4.00000000000000000000, 4.00000000000000000000, 4.00000000000000000000, 4.00000000000000000000, 4.00000000000000000000, 4.00000000000000000000, 4.00000000000000000000, 1670.00000000000000000000, 1688.00000000000000000000, 0.00000000000000000000
64.00000000000000000000, 0.00000000000000000000, 4060.51272122034110000000, 4731.28193558712610000000, 4228.20502481203770000000, 4640.51270703749290000000, 4283.07681834204230000000, 4799.48706212442180000000, 4283.07681834204230000000, 4296.92297184961350000000, 4468.20501894327300000000, 4891.28193167461630000000, 4509.23065896570640000000, 4185.64092328876270000000, 4567.69219599767350000000, 4293.33322834765020000000, 509.00000000000000000000, 4.00000000000000000000, 4.00000000000000000000, 4.00000000000000000000, 4.00000000000000000000, 4.00000000000000000000, 4.00000000000000000000, 0.00000000000000000000, 0.00000000000000000000, 4.00000000000000000000, 4.00000000000000000000, 4.00000000000000000000, 4.00000000000000000000, 4.00000000000000000000, 4.00000000000000000000, 4.00000000000000000000, 4.00000000000000000000, 1670.00000000000000000000, 1689.00000000000000000000, 0.00000000000000000000
65.00000000000000000000, 0.00000000000000000000, 4059.48708021978020000000, 4731.79475608740720000000, 4232.30758881428120000000, 4640.51270703749290000000, 4280.51271584064030000000, 4797.94860062358110000000, 4278.97425433979880000000, 4298.46143335045510000000, 4473.84604444635720000000, 4892.82039317545790000000, 4506.66655646430350000000, 4181.53835928651920000000, 4568.71783699823390000000, 4290.25630534596800000000, 509.00000000000000000000, 4.00000000000000000000, 4.00000000000000000000, 4.00000000000000000000, 4.00000000000000000000, 4.00000000000000000000, 4.00000000000000000000, 0.00000000000000000000, 0.00000000000000000000, 4.00000000000000000000, 4.00000000000000000000, 4.00000000000000000000, 4.00000000000000000000, 4.00000000000000000000, 4.00000000000000000000, 4.00000000000000000000, 4.00000000000000000000, 1671.00000000000000000000, 1688.00000000000000000000, 0.00000000000000000000
66.00000000000000000000, 0.00000000000000000000, 4058.46143921921930000000, 4736.41014058993100000000, 4232.82040931456140000000, 4642.05116853833440000000, 4286.66656184400470000000, 4803.07680562638510000000, 4275.89733133811660000000, 4299.99989485129570000000, 4475.38450594719870000000, 4893.33321367573810000000, 4498.46142845981740000000, 4171.28194928091120000000, 4569.23065749851500000000, 4282.05117734148100000000, 524.00000000000000000000, 4.00000000000000000000, 4.00000000000000000000, 4.00000000000000000000, 4.00000000000000000000, 4.00000000000000000000, 4.00000000000000000000, 0.00000000000000000000, 0.00000000000000000000, 4.00000000000000000000, 4.00000000000000000000, 4.00000000000000000000, 4.00000000000000000000, 4.00000000000000000000, 4.00000000000000000000, 4.00000000000000000000, 4.00000000000000000000, 1671.00000000000000000000, 1688.00000000000000000000, 0.00000000000000000000
67.00000000000000000000, 0.00000000000000000000, 4055.38451621753710000000, 4732.30757658768740000000, 4232.82040931456140000000, 4637.43578403580980000000, 4292.82040784737000000000, 4811.79475413115230000000, 4280.51271584064030000000, 4297.43579234989370000000, 4473.84604444635720000000, 4896.41013667742120000000, 4503.58963346262140000000, 4175.38451328315480000000, 4570.76911899935570000000, 4279.48707484007900000000, 528.00000000000000000000, 4.00000000000000000000, 4.00000000000000000000, 4.00000000000000000000, 4.00000000000000000000, 4.00000000000000000000, 4.00000000000000000000, 0.00000000000000000000, 0.00000000000000000000, 4.00000000000000000000, 4.00000000000000000000, 4.00000000000000000000, 4.00000000000000000000, 4.00000000000000000000, 4.00000000000000000000, 4.00000000000000000000, 4.00000000000000000000, 1671.00000000000000000000, 1687.00000000000000000000, 0.00000000000000000000
68.00000000000000000000, 0.00000000000000000000, 4046.66656771276980000000, 4718.97424358039640000000, 4232.82040931456140000000, 4627.69219453048210000000, 4288.20502334484630000000, 4810.25629263031080000000, 4281.53835684120080000000, 4295.89733084905220000000, 4477.94860844860070000000, 4900.51270067966380000000, 4512.30758196738860000000, 4186.15374378904290000000, 4568.71783699823390000000, 4282.56399784176210000000, 543.00000000000000000000, 4.00000000000000000000, 4.00000000000000000000, 4.00000000000000000000, 4.00000000000000000000, 4.00000000000000000000, 4.00000000000000000000, 0.00000000000000000000, 0.00000000000000000000, 4.00000000000000000000, 4.00000000000000000000, 4.00000000000000000000, 4.00000000000000000000, 4.00000000000000000000, 4.00000000000000000000, 4.00000000000000000000, 4.00000000000000000000, 1671.00000000000000000000, 1688.00000000000000000000, 0.00000000000000000000
69.00000000000000000000, 0.00000000000000000000, 4043.07682421080700000000, 4721.53834608179840000000, 4228.71784531231790000000, 4624.61527152879990000000, 4281.02553634092060000000, 4803.07680562638510000000, 4277.94861333923840000000, 4295.89733084905220000000, 4475.89732644747890000000, 4894.35885467629940000000, 4504.61527446318270000000, 4178.97425678511720000000, 4560.51270899374780000000, 4277.94861333923840000000, 506.00000000000000000000, 4.00000000000000000000, 4.00000000000000000000, 4.00000000000000000000, 4.00000000000000000000, 4.00000000000000000000, 4.00000000000000000000, 0.00000000000000000000, 0.00000000000000000000, 4.00000000000000000000, 4.00000000000000000000, 4.00000000000000000000, 4.00000000000000000000, 4.00000000000000000000, 4.00000000000000000000, 4.00000000000000000000, 4.00000000000000000000, 1671.00000000000000000000, 1687.00000000000000000000, 0.00000000000000000000
70.00000000000000000000, 0.00000000000000000000, 4045.12810621192880000000, 4732.82039708796760000000, 4220.51271730783080000000, 4632.82039953328600000000, 4282.05117734148100000000, 4799.48706212442180000000, 4279.99989534035920000000, 4295.89733084905220000000, 4463.07681394046810000000, 4878.46141916760640000000, 4487.69219795392840000000, 4167.17938527866770000000, 4552.30758098926070000000, 4266.15374183278800000000, 0.00000000000000000000, 4.00000000000000000000, 4.00000000000000000000, 4.00000000000000000000, 4.00000000000000000000, 4.00000000000000000000, 4.00000000000000000000, 0.00000000000000000000, 0.00000000000000000000, 4.00000000000000000000, 4.00000000000000000000, 4.00000000000000000000, 4.00000000000000000000, 4.00000000000000000000, 4.00000000000000000000, 4.00000000000000000000, 4.00000000000000000000, 1669.00000000000000000000, 1688.00000000000000000000, 0.00000000000000000000
71.00000000000000000000, 0.00000000000000000000, 4045.12810621192880000000, 4735.38449958936960000000, 4217.94861480642880000000, 4641.02552753777310000000, 4286.66656184400470000000, 4797.43578012330000000000, 4279.99989534035920000000, 4298.97425385073530000000, 4455.89732693654240000000, 4871.79475266396090000000, 4478.46142894888090000000, 4163.07682127642420000000, 4547.69219648673700000000, 4262.05117783054540000000, 0.00000000000000000000, 4.00000000000000000000, 4.00000000000000000000, 4.00000000000000000000, 4.00000000000000000000, 4.00000000000000000000, 4.00000000000000000000, 0.00000000000000000000, 0.00000000000000000000, 4.00000000000000000000, 4.00000000000000000000, 4.00000000000000000000, 4.00000000000000000000, 4.00000000000000000000, 4.00000000000000000000, 4.00000000000000000000, 4.00000000000000000000, 1671.00000000000000000000, 1687.00000000000000000000, 0.00000000000000000000
72.00000000000000000000, 0.00000000000000000000, 4044.10246521136790000000, 4734.87167908908940000000, 4218.97425580699020000000, 4641.53834803805330000000, 4286.15374134372450000000, 4796.41013912273960000000, 4277.94861333923840000000, 4299.48707435101550000000, 4452.82040393486020000000, 4875.89731666620450000000, 4477.94860844860070000000, 4163.07682127642420000000, 4542.56399148393300000000, 4266.66656233306910000000, 414.00000000000000000000, 4.00000000000000000000, 4.00000000000000000000, 4.00000000000000000000, 4.00000000000000000000, 4.00000000000000000000, 4.00000000000000000000, 0.00000000000000000000, 0.00000000000000000000, 4.00000000000000000000, 4.00000000000000000000, 4.00000000000000000000, 4.00000000000000000000, 4.00000000000000000000, 4.00000000000000000000, 4.00000000000000000000, 4.00000000000000000000, 1669.00000000000000000000, 1687.00000000000000000000, 0.00000000000000000000
73.00000000000000000000, 0.00000000000000000000, 4041.02554220968520000000, 4732.82039708796760000000, 4216.92297380586840000000, 4635.89732253496910000000, 4283.07681834204230000000, 4798.46142112386130000000, 4278.46143383951860000000, 4297.94861285017400000000, 4447.69219893205630000000, 4874.87167566564310000000, 4478.97424944916110000000, 4163.07682127642420000000, 4536.41014548056770000000, 4264.61528033194740000000, 460.00000000000000000000, 4.00000000000000000000, 4.00000000000000000000, 4.00000000000000000000, 4.00000000000000000000, 4.00000000000000000000, 4.00000000000000000000, 0.00000000000000000000, 0.00000000000000000000, 4.00000000000000000000, 4.00000000000000000000, 4.00000000000000000000, 4.00000000000000000000, 4.00000000000000000000, 4.00000000000000000000, 4.00000000000000000000, 4.00000000000000000000, 1669.00000000000000000000, 1688.00000000000000000000, 0.00000000000000000000
74.00000000000000000000, 0.00000000000000000000, 4033.84605520575950000000, 4724.61526908348150000000, 4214.87169180474670000000, 4629.23065603132360000000, 4283.58963884232250000000, 4798.97424162414150000000, 4279.99989534035920000000, 4298.46143335045510000000, 4447.17937843177510000000, 4869.74347066283920000000, 4476.41014694775910000000, 4158.46143677390050000000, 4533.84604297916580000000, 4255.38451132689990000000, 503.00000000000000000000, 4.00000000000000000000, 4.00000000000000000000, 4.00000000000000000000, 4.00000000000000000000, 4.00000000000000000000, 4.00000000000000000000, 0.00000000000000000000, 0.00000000000000000000, 4.00000000000000000000, 4.00000000000000000000, 4.00000000000000000000, 4.00000000000000000000, 4.00000000000000000000, 4.00000000000000000000, 4.00000000000000000000, 4.00000000000000000000, 1668.00000000000000000000, 1687.00000000000000000000, 0.00000000000000000000
75.00000000000000000000, 0.00000000000000000000, 4032.82041420519860000000, 4723.58962808292020000000, 4216.92297380586840000000, 4633.84604053384740000000, 4288.20502334484630000000, 4797.94860062358110000000, 4277.94861333923840000000, 4296.92297184961350000000, 4453.84604493542070000000, 4870.76911166339960000000, 4473.84604444635720000000, 4156.92297527305980000000, 4534.87168397972710000000, 4256.41015232746030000000, 493.00000000000000000000, 4.00000000000000000000, 4.00000000000000000000, 4.00000000000000000000, 4.00000000000000000000, 4.00000000000000000000, 4.00000000000000000000, 0.00000000000000000000, 0.00000000000000000000, 4.00000000000000000000, 4.00000000000000000000, 4.00000000000000000000, 4.00000000000000000000, 4.00000000000000000000, 4.00000000000000000000, 4.00000000000000000000, 4.00000000000000000000, 1667.00000000000000000000, 1688.00000000000000000000, 0.00000000000000000000
76.00000000000000000000, 0.00000000000000000000, 4037.43579870772240000000, 4731.28193558712610000000, 4217.43579430614860000000, 4644.61527103973640000000, 4289.23066434540670000000, 4797.43578012330000000000, 4278.97425433979880000000, 4296.41015134933330000000, 4457.94860893766420000000, 4874.35885516536290000000, 4477.43578794832050000000, 4159.48707777446180000000, 4537.43578648112910000000, 4259.99989582942360000000, 498.00000000000000000000, 4.00000000000000000000, 4.00000000000000000000, 4.00000000000000000000, 4.00000000000000000000, 4.00000000000000000000, 4.00000000000000000000, 0.00000000000000000000, 0.00000000000000000000, 4.00000000000000000000, 4.00000000000000000000, 4.00000000000000000000, 4.00000000000000000000, 4.00000000000000000000, 4.00000000000000000000, 4.00000000000000000000, 4.00000000000000000000, 1668.00000000000000000000, 1688.00000000000000000000, 0.00000000000000000000
77.00000000000000000000, 0.00000000000000000000, 4035.38451670660060000000, 4732.82039708796760000000, 4214.87169180474670000000, 4643.07680953889480000000, 4289.74348484568780000000, 4799.48706212442180000000, 4278.97425433979880000000, 4295.89733084905220000000, 4457.94860893766420000000, 4873.33321416480160000000, 4477.94860844860070000000, 4155.89733427249850000000, 4535.89732498028750000000, 4256.41015232746030000000, 494.00000000000000000000, 4.00000000000000000000, 4.00000000000000000000, 4.00000000000000000000, 4.00000000000000000000, 4.00000000000000000000, 4.00000000000000000000, 0.00000000000000000000, 0.00000000000000000000, 4.00000000000000000000, 4.00000000000000000000, 4.00000000000000000000, 4.00000000000000000000, 4.00000000000000000000, 4.00000000000000000000, 4.00000000000000000000, 4.00000000000000000000, 1667.00000000000000000000, 1689.00000000000000000000, 0.00000000000000000000
78.00000000000000000000, 0.00000000000000000000, 4032.30759370491840000000, 4731.28193558712610000000, 4212.82040980362490000000, 4639.48706603693150000000, 4292.82040784737000000000, 4800.51270312498310000000, 4276.92297233867700000000, 4295.38451034877200000000, 4459.48707043850570000000, 4878.46141916760640000000, 4478.97424944916110000000, 4150.76912926969450000000, 4538.97424798197060000000, 4257.94861382830190000000, 503.00000000000000000000, 4.00000000000000000000, 4.00000000000000000000, 4.00000000000000000000, 4.00000000000000000000, 4.00000000000000000000, 4.00000000000000000000, 0.00000000000000000000, 0.00000000000000000000, 4.00000000000000000000, 4.00000000000000000000, 4.00000000000000000000, 4.00000000000000000000, 4.00000000000000000000, 4.00000000000000000000, 4.00000000000000000000, 4.00000000000000000000, 1667.00000000000000000000, 1688.00000000000000000000, 0.00000000000000000000
79.00000000000000000000, 0.00000000000000000000, 4039.99990120912430000000, 4733.33321758824790000000, 4212.30758930334470000000, 4642.05116853833440000000, 4293.84604884793040000000, 4799.48706212442180000000, 4278.97425433979880000000, 4297.94861285017400000000, 4462.56399344018790000000, 4891.79475217489740000000, 4488.71783895448970000000, 4159.99989827474200000000, 4552.30758098926070000000, 4265.64092133250780000000, 493.00000000000000000000, 4.00000000000000000000, 4.00000000000000000000, 4.00000000000000000000, 4.00000000000000000000, 4.00000000000000000000, 4.00000000000000000000, 0.00000000000000000000, 0.00000000000000000000, 4.00000000000000000000, 4.00000000000000000000, 4.00000000000000000000, 4.00000000000000000000, 4.00000000000000000000, 4.00000000000000000000, 4.00000000000000000000, 4.00000000000000000000, 1666.00000000000000000000, 1689.00000000000000000000, 0.00000000000000000000
80.00000000000000000000, 0.00000000000000000000, 4043.58964471108720000000, 4733.84603808852900000000, 4214.35887130446640000000, 4640.51270703749290000000, 4295.38451034877200000000, 4799.99988262470200000000, 4281.53835684120080000000, 4299.99989485129570000000, 4462.56399344018790000000, 4891.79475217489740000000, 4487.69219795392840000000, 4166.66656477838750000000, 4552.30758098926070000000, 4261.53835733026430000000, 498.00000000000000000000, 4.00000000000000000000, 4.00000000000000000000, 4.00000000000000000000, 4.00000000000000000000, 4.00000000000000000000, 4.00000000000000000000, 0.00000000000000000000, 0.00000000000000000000, 4.00000000000000000000, 4.00000000000000000000, 4.00000000000000000000, 4.00000000000000000000, 4.00000000000000000000, 4.00000000000000000000, 4.00000000000000000000, 4.00000000000000000000, 1668.00000000000000000000, 1688.00000000000000000000, 0.00000000000000000000
81.00000000000000000000, 0.00000000000000000000, 4037.43579870772240000000, 4734.35885858880920000000, 4213.84605080418620000000, 4638.97424553665130000000, 4294.87168984849180000000, 4800.51270312498310000000, 4279.99989534035920000000, 4298.46143335045510000000, 4457.94860893766420000000, 4877.94859866732530000000, 4476.41014694775910000000, 4157.94861627362020000000, 4539.48706848225080000000, 4255.89733182718010000000, 494.00000000000000000000, 4.00000000000000000000, 4.00000000000000000000, 4.00000000000000000000, 4.00000000000000000000, 4.00000000000000000000, 4.00000000000000000000, 0.00000000000000000000, 0.00000000000000000000, 4.00000000000000000000, 4.00000000000000000000, 4.00000000000000000000, 4.00000000000000000000, 4.00000000000000000000, 4.00000000000000000000, 4.00000000000000000000, 4.00000000000000000000, 1666.00000000000000000000, 1688.00000000000000000000, 0.00000000000000000000
82.00000000000000000000, 0.00000000000000000000, 4035.38451670660060000000, 4733.33321758824790000000, 4207.17938430054070000000, 4643.07680953889480000000, 4291.79476684680960000000, 4799.99988262470200000000, 4279.99989534035920000000, 4297.94861285017400000000, 4457.94860893766420000000, 4872.82039366452140000000, 4474.35886494663740000000, 4152.30759077053610000000, 4535.89732498028750000000, 4257.94861382830190000000, 503.00000000000000000000, 4.00000000000000000000, 4.00000000000000000000, 4.00000000000000000000, 4.00000000000000000000, 4.00000000000000000000, 4.00000000000000000000, 0.00000000000000000000, 0.00000000000000000000, 4.00000000000000000000, 4.00000000000000000000, 4.00000000000000000000, 4.00000000000000000000, 4.00000000000000000000, 4.00000000000000000000, 4.00000000000000000000, 4.00000000000000000000, 1668.00000000000000000000, 1687.00000000000000000000, 0.00000000000000000000
83.00000000000000000000, 0.00000000000000000000, 4035.38451670660060000000, 4726.66655108460240000000, 4201.53835879745570000000, 4637.94860453609090000000, 4290.25630534596800000000, 4799.99988262470200000000, 4284.10245934260270000000, 4297.94861285017400000000, 4459.99989093878590000000, 4878.46141916760640000000, 4474.87168544691850000000, 4154.87169327193810000000, 4539.99988898253100000000, 4254.35887032633850000000, 493.00000000000000000000, 4.00000000000000000000, 4.00000000000000000000, 4.00000000000000000000, 4.00000000000000000000, 4.00000000000000000000, 4.00000000000000000000, 0.00000000000000000000, 0.00000000000000000000, 4.00000000000000000000, 4.00000000000000000000, 4.00000000000000000000, 4.00000000000000000000, 4.00000000000000000000, 4.00000000000000000000, 4.00000000000000000000, 4.00000000000000000000, 1667.00000000000000000000, 1687.00000000000000000000, 0.00000000000000000000
84.00000000000000000000, 0.00000000000000000000, 4028.20502970267490000000, 4716.41014107899450000000, 4201.02553829717540000000, 4628.20501503076230000000, 4292.30758734708980000000, 4803.58962612666530000000, 4283.07681834204230000000, 4295.89733084905220000000, 4457.94860893766420000000, 4876.92295766676490000000, 4471.28194194495520000000, 4154.35887277165780000000, 4535.89732498028750000000, 4247.17938332241280000000, 498.00000000000000000000, 4.00000000000000000000, 4.00000000000000000000, 4.00000000000000000000, 4.00000000000000000000, 4.00000000000000000000, 4.00000000000000000000, 0.00000000000000000000, 0.00000000000000000000, 4.00000000000000000000, 4.00000000000000000000, 4.00000000000000000000, 4.00000000000000000000, 4.00000000000000000000, 4.00000000000000000000, 4.00000000000000000000, 4.00000000000000000000, 1668.00000000000000000000, 1688.00000000000000000000, 0.00000000000000000000
85.00000000000000000000, 0.00000000000000000000, 4027.17938870211400000000, 4716.92296157927470000000, 4200.51271779689520000000, 4631.79475853272560000000, 4292.82040784737000000000, 4805.12808762750680000000, 4277.94861333923840000000, 4296.92297184961350000000, 4459.99989093878590000000, 4874.87167566564310000000, 4479.99989044972240000000, 4156.92297527305980000000, 4537.94860698140930000000, 4249.23066532353460000000, 494.00000000000000000000, 4.00000000000000000000, 4.00000000000000000000, 4.00000000000000000000, 4.00000000000000000000, 4.00000000000000000000, 4.00000000000000000000, 0.00000000000000000000, 0.00000000000000000000, 4.00000000000000000000, 4.00000000000000000000, 4.00000000000000000000, 4.00000000000000000000, 4.00000000000000000000, 4.00000000000000000000, 4.00000000000000000000, 4.00000000000000000000, 1668.00000000000000000000, 1686.00000000000000000000, 0.00000000000000000000
86.00000000000000000000, 0.00000000000000000000, 4035.38451670660060000000, 4729.74347408628550000000, 4205.64092279969920000000, 4640.51270703749290000000, 4293.33322834765020000000, 4803.07680562638510000000, 4278.97425433979880000000, 4300.51271535157590000000, 4467.69219844299190000000, 4881.53834216928860000000, 4488.20501845420860000000, 4163.07682127642420000000, 4547.69219648673700000000, 4257.43579332802160000000, 503.00000000000000000000, 4.00000000000000000000, 4.00000000000000000000, 4.00000000000000000000, 4.00000000000000000000, 4.00000000000000000000, 4.00000000000000000000, 0.00000000000000000000, 0.00000000000000000000, 4.00000000000000000000, 4.00000000000000000000, 4.00000000000000000000, 4.00000000000000000000, 4.00000000000000000000, 4.00000000000000000000, 4.00000000000000000000, 4.00000000000000000000, 1667.00000000000000000000, 1688.00000000000000000000, 0.00000000000000000000
87.00000000000000000000, 0.00000000000000000000, 4038.46143970828330000000, 4735.89732008964980000000, 4214.35887130446640000000, 4647.17937354113840000000, 4295.89733084905220000000, 4799.99988262470200000000, 4282.56399784176210000000, 4298.46143335045510000000, 4468.20501894327300000000, 4884.10244467069060000000, 4481.02553145028290000000, 4161.53835977558360000000, 4547.17937598645680000000, 4261.02553682998400000000, 493.00000000000000000000, 4.00000000000000000000, 4.00000000000000000000, 4.00000000000000000000, 4.00000000000000000000, 4.00000000000000000000, 4.00000000000000000000, 0.00000000000000000000, 0.00000000000000000000, 4.00000000000000000000, 4.00000000000000000000, 4.00000000000000000000, 4.00000000000000000000, 4.00000000000000000000, 4.00000000000000000000, 4.00000000000000000000, 4.00000000000000000000, 1668.00000000000000000000, 1686.00000000000000000000, 0.00000000000000000000
88.00000000000000000000, 0.00000000000000000000, 4036.41015770716150000000, 4732.30757658768740000000, 4215.89733280530710000000, 4649.23065554226010000000, 4294.35886934821160000000, 4798.46142112386130000000, 4281.02553634092060000000, 4296.41015134933330000000, 4461.53835243962750000000, 4879.48706016816690000000, 4476.92296744803930000000, 4156.92297527305980000000, 4537.43578648112910000000, 4262.56399833082560000000, 498.00000000000000000000, 4.00000000000000000000, 4.00000000000000000000, 4.00000000000000000000, 4.00000000000000000000, 4.00000000000000000000, 4.00000000000000000000, 0.00000000000000000000, 0.00000000000000000000, 4.00000000000000000000, 4.00000000000000000000, 4.00000000000000000000, 4.00000000000000000000, 4.00000000000000000000, 4.00000000000000000000, 4.00000000000000000000, 4.00000000000000000000, 1667.00000000000000000000, 1688.00000000000000000000, 0.00000000000000000000
89.00000000000000000000, 0.00000000000000000000, 4036.92297820744220000000, 4733.84603808852900000000, 4211.79476880306450000000, 4637.43578403580980000000, 4292.30758734708980000000, 4798.97424162414150000000, 4276.92297233867700000000, 4296.92297184961350000000, 4459.48707043850570000000, 4877.94859866732530000000, 4482.05117245084420000000, 4161.53835977558360000000, 4536.92296598084890000000, 4263.58963933138600000000, 494.00000000000000000000, 4.00000000000000000000, 4.00000000000000000000, 4.00000000000000000000, 4.00000000000000000000, 4.00000000000000000000, 4.00000000000000000000, 0.00000000000000000000, 0.00000000000000000000, 4.00000000000000000000, 4.00000000000000000000, 4.00000000000000000000, 4.00000000000000000000, 4.00000000000000000000, 4.00000000000000000000, 4.00000000000000000000, 4.00000000000000000000, 1668.00000000000000000000, 1687.00000000000000000000, 0.00000000000000000000
90.00000000000000000000, 0.00000000000000000000, 4037.43579870772240000000, 4734.87167908908940000000, 4209.23066630166250000000, 4631.79475853272560000000, 4291.79476684680960000000, 4799.48706212442180000000, 4275.89733133811660000000, 4297.43579234989370000000, 4463.58963444074930000000, 4878.97423966788660000000, 4482.05117245084420000000, 4165.12810327754600000000, 4546.66655548617650000000, 4262.05117783054540000000, 503.00000000000000000000, 4.00000000000000000000, 4.00000000000000000000, 4.00000000000000000000, 4.00000000000000000000, 4.00000000000000000000, 4.00000000000000000000, 0.00000000000000000000, 0.00000000000000000000, 4.00000000000000000000, 4.00000000000000000000, 4.00000000000000000000, 4.00000000000000000000, 4.00000000000000000000, 4.00000000000000000000, 4.00000000000000000000, 4.00000000000000000000, 1668.00000000000000000000, 1687.00000000000000000000, 0.00000000000000000000
91.00000000000000000000, 0.00000000000000000000, 4037.94861920800300000000, 4731.28193558712610000000, 4206.15374329997940000000, 4639.48706603693150000000, 4291.79476684680960000000, 4799.99988262470200000000, 4278.46143383951860000000, 4295.89733084905220000000, 4463.07681394046810000000, 4877.94859866732530000000, 4478.97424944916110000000, 4159.48707777446180000000, 4548.20501698701810000000, 4261.02553682998400000000, 493.00000000000000000000, 4.00000000000000000000, 4.00000000000000000000, 4.00000000000000000000, 4.00000000000000000000, 4.00000000000000000000, 4.00000000000000000000, 0.00000000000000000000, 0.00000000000000000000, 4.00000000000000000000, 4.00000000000000000000, 4.00000000000000000000, 4.00000000000000000000, 4.00000000000000000000, 4.00000000000000000000, 4.00000000000000000000, 4.00000000000000000000, 1668.00000000000000000000, 1687.00000000000000000000, 0.00000000000000000000
92.00000000000000000000, 0.00000000000000000000, 4034.87169620632040000000, 4727.17937158488350000000, 4202.05117929773590000000, 4637.94860453609090000000, 4289.23066434540670000000, 4798.97424162414150000000, 4278.97425433979880000000, 4295.38451034877200000000, 4457.43578843738400000000, 4875.89731666620450000000, 4477.94860844860070000000, 4152.82041127081630000000, 4541.02552998309150000000, 4257.43579332802160000000, 498.00000000000000000000, 4.00000000000000000000, 4.00000000000000000000, 4.00000000000000000000, 4.00000000000000000000, 4.00000000000000000000, 4.00000000000000000000, 0.00000000000000000000, 0.00000000000000000000, 4.00000000000000000000, 4.00000000000000000000, 4.00000000000000000000, 4.00000000000000000000, 4.00000000000000000000, 4.00000000000000000000, 4.00000000000000000000, 4.00000000000000000000, 1667.00000000000000000000, 1689.00000000000000000000, 0.00000000000000000000
93.00000000000000000000, 0.00000000000000000000, 4027.17938870211400000000, 4722.56398708235970000000, 4201.53835879745570000000, 4627.17937403020190000000, 4285.12810034316410000000, 4795.89731862245940000000, 4278.46143383951860000000, 4296.41015134933330000000, 4455.38450643626220000000, 4873.84603466508270000000, 4469.23065994383340000000, 4152.30759077053610000000, 4534.87168397972710000000, 4251.28194732465640000000, 494.00000000000000000000, 4.00000000000000000000, 4.00000000000000000000, 4.00000000000000000000, 4.00000000000000000000, 4.00000000000000000000, 4.00000000000000000000, 0.00000000000000000000, 0.00000000000000000000, 4.00000000000000000000, 4.00000000000000000000, 4.00000000000000000000, 4.00000000000000000000, 4.00000000000000000000, 4.00000000000000000000, 4.00000000000000000000, 4.00000000000000000000, 1668.00000000000000000000, 1688.00000000000000000000, 0.00000000000000000000
94.00000000000000000000, 0.00000000000000000000, 4029.74349120351600000000, 4719.48706408067660000000, 4208.20502530110120000000, 4631.79475853272560000000, 4283.58963884232250000000, 4794.87167762189800000000, 4278.46143383951860000000, 4296.92297184961350000000, 4459.99989093878590000000, 4872.82039366452140000000, 4464.10245494102950000000, 4155.38451377221830000000, 4535.89732498028750000000, 4254.87169082661880000000, 503.00000000000000000000, 4.00000000000000000000, 4.00000000000000000000, 4.00000000000000000000, 4.00000000000000000000, 4.00000000000000000000, 4.00000000000000000000, 0.00000000000000000000, 0.00000000000000000000, 4.00000000000000000000, 4.00000000000000000000, 4.00000000000000000000, 4.00000000000000000000, 4.00000000000000000000, 4.00000000000000000000, 4.00000000000000000000, 4.00000000000000000000, 1668.00000000000000000000, 1688.00000000000000000000, 0.00000000000000000000
95.00000000000000000000, 0.00000000000000000000, 4038.46143970828330000000, 4725.12808958376170000000, 4217.43579430614860000000, 4643.58963003917510000000, 4287.17938234428580000000, 4797.94860062358110000000, 4279.99989534035920000000, 4296.92297184961350000000, 4462.05117293990770000000, 4875.89731666620450000000, 4473.33322394607690000000, 4157.94861627362020000000, 4538.46142748168950000000, 4260.51271632970380000000, 493.00000000000000000000, 4.00000000000000000000, 4.00000000000000000000, 4.00000000000000000000, 4.00000000000000000000, 4.00000000000000000000, 4.00000000000000000000, 0.00000000000000000000, 0.00000000000000000000, 4.00000000000000000000, 4.00000000000000000000, 4.00000000000000000000, 4.00000000000000000000, 4.00000000000000000000, 4.00000000000000000000, 4.00000000000000000000, 4.00000000000000000000, 1667.00000000000000000000, 1690.00000000000000000000, 0.00000000000000000000
96.00000000000000000000, 0.00000000000000000000, 4035.89733720688130000000, 4726.66655108460240000000, 4214.87169180474670000000, 4639.99988653721270000000, 4286.66656184400470000000, 4797.43578012330000000000, 4278.46143383951860000000, 4296.41015134933330000000, 4459.99989093878590000000, 4875.89731666620450000000, 4478.97424944916110000000, 4157.43579577334000000000, 4536.92296598084890000000, 4257.94861382830190000000, 498.00000000000000000000, 4.00000000000000000000, 4.00000000000000000000, 4.00000000000000000000, 4.00000000000000000000, 4.00000000000000000000, 4.00000000000000000000, 0.00000000000000000000, 0.00000000000000000000, 4.00000000000000000000, 4.00000000000000000000, 4.00000000000000000000, 4.00000000000000000000, 4.00000000000000000000, 4.00000000000000000000, 4.00000000000000000000, 4.00000000000000000000, 1668.00000000000000000000, 1688.00000000000000000000, 0.00000000000000000000
97.00000000000000000000, 0.00000000000000000000, 4031.28195270435750000000, 4719.99988458095780000000, 4205.12810229941900000000, 4632.82039953328600000000, 4283.07681834204230000000, 4795.89731862245940000000, 4280.51271584064030000000, 4296.92297184961350000000, 4460.51271143906620000000, 4873.84603466508270000000, 4474.87168544691850000000, 4156.92297527305980000000, 4534.87168397972710000000, 4259.48707532914250000000, 494.00000000000000000000, 4.00000000000000000000, 4.00000000000000000000, 4.00000000000000000000, 4.00000000000000000000, 4.00000000000000000000, 4.00000000000000000000, 0.00000000000000000000, 0.00000000000000000000, 4.00000000000000000000, 4.00000000000000000000, 4.00000000000000000000, 4.00000000000000000000, 4.00000000000000000000, 4.00000000000000000000, 4.00000000000000000000, 4.00000000000000000000, 1668.00000000000000000000, 1690.00000000000000000000, 0.00000000000000000000
98.00000000000000000000, 0.00000000000000000000, 4036.92297820744220000000, 4719.48706408067660000000, 4202.56399979801700000000, 4632.30757903300580000000, 4286.15374134372450000000, 4797.94860062358110000000, 4283.07681834204230000000, 4296.92297184961350000000, 4461.53835243962750000000, 4874.87167566564310000000, 4472.30758294551560000000, 4156.41015477277960000000, 4534.35886347944600000000, 4262.56399833082560000000, 503.00000000000000000000, 4.00000000000000000000, 4.00000000000000000000, 4.00000000000000000000, 4.00000000000000000000, 4.00000000000000000000, 4.00000000000000000000, 0.00000000000000000000, 0.00000000000000000000, 4.00000000000000000000, 4.00000000000000000000, 4.00000000000000000000, 4.00000000000000000000, 4.00000000000000000000, 4.00000000000000000000, 4.00000000000000000000, 4.00000000000000000000, 1669.00000000000000000000, 1689.00000000000000000000, 0.00000000000000000000
99.00000000000000000000, 0.00000000000000000000, 4037.94861920800300000000, 4721.53834608179840000000, 4203.07682029829720000000, 4629.74347653160380000000, 4287.69220284456610000000, 4797.43578012330000000000, 4278.97425433979880000000, 4296.92297184961350000000, 4462.05117293990770000000, 4877.94859866732530000000, 4473.33322394607690000000, 4154.35887277165780000000, 4534.35886347944600000000, 4254.35887032633850000000, 493.00000000000000000000, 4.00000000000000000000, 4.00000000000000000000, 4.00000000000000000000, 4.00000000000000000000, 4.00000000000000000000, 4.00000000000000000000, 0.00000000000000000000, 0.00000000000000000000, 4.00000000000000000000, 4.00000000000000000000, 4.00000000000000000000, 4.00000000000000000000, 4.00000000000000000000, 4.00000000000000000000, 4.00000000000000000000, 4.00000000000000000000, 1668.00000000000000000000, 1689.00000000000000000000, 0.00000000000000000000
100.00000000000000000000, 0.00000000000000000000, 4032.30759370491840000000, 4721.02552558151820000000, 4200.51271779689520000000, 4628.20501503076230000000, 4283.58963884232250000000, 4793.84603662133760000000, 4276.92297233867700000000, 4296.41015134933330000000, 4460.51271143906620000000, 4877.94859866732530000000, 4473.84604444635720000000, 4152.30759077053610000000, 4535.89732498028750000000, 4249.23066532353460000000, 498.00000000000000000000, 4.00000000000000000000, 4.00000000000000000000, 4.00000000000000000000, 4.00000000000000000000, 4.00000000000000000000, 4.00000000000000000000, 0.00000000000000000000, 0.00000000000000000000, 4.00000000000000000000, 4.00000000000000000000, 4.00000000000000000000, 4.00000000000000000000, 4.00000000000000000000, 4.00000000000000000000, 4.00000000000000000000, 4.00000000000000000000, 1668.00000000000000000000, 1687.00000000000000000000, 0.00000000000000000000
101.00000000000000000000, 0.00000000000000000000, 4028.20502970267490000000, 4718.46142308011620000000, 4198.46143579577350000000, 4631.79475853272560000000, 4283.07681834204230000000, 4795.38449812217820000000, 4280.51271584064030000000, 4295.89733084905220000000, 4459.48707043850570000000, 4875.89731666620450000000, 4472.30758294551560000000, 4153.33323177109650000000, 4534.35886347944600000000, 4250.76912682437610000000, 494.00000000000000000000, 4.00000000000000000000, 4.00000000000000000000, 4.00000000000000000000, 4.00000000000000000000, 4.00000000000000000000, 4.00000000000000000000, 0.00000000000000000000, 0.00000000000000000000, 4.00000000000000000000, 4.00000000000000000000, 4.00000000000000000000, 4.00000000000000000000, 4.00000000000000000000, 4.00000000000000000000, 4.00000000000000000000, 4.00000000000000000000, 1668.00000000000000000000, 1687.00000000000000000000, 0.00000000000000000000
102.00000000000000000000, 0.00000000000000000000, 4021.53836319902940000000, 4713.33321807731230000000, 4197.43579479521210000000, 4628.71783553104340000000, 4282.05117734148100000000, 4797.43578012330000000000, 4278.97425433979880000000, 4296.41015134933330000000, 4459.99989093878590000000, 4872.30757316424110000000, 4463.07681394046810000000, 4152.82041127081630000000, 4524.10245347383810000000, 4240.51271681876730000000, 503.00000000000000000000, 4.00000000000000000000, 4.00000000000000000000, 4.00000000000000000000, 4.00000000000000000000, 4.00000000000000000000, 4.00000000000000000000, 0.00000000000000000000, 0.00000000000000000000, 4.00000000000000000000, 4.00000000000000000000, 4.00000000000000000000, 4.00000000000000000000, 4.00000000000000000000, 4.00000000000000000000, 4.00000000000000000000, 4.00000000000000000000, 1668.00000000000000000000, 1687.00000000000000000000, 0.00000000000000000000
103.00000000000000000000, 0.00000000000000000000, 4016.92297869650570000000, 4710.25629507562920000000, 4196.92297429493190000000, 4623.07681002795830000000, 4275.89733133811660000000, 4793.84603662133760000000, 4278.46143383951860000000, 4295.89733084905220000000, 4458.46142943794440000000, 4866.15372716087590000000, 4455.38450643626220000000, 4146.66656526745100000000, 4516.92296646991240000000, 4235.38451181596340000000, 493.00000000000000000000, 4.00000000000000000000, 4.00000000000000000000, 4.00000000000000000000, 4.00000000000000000000, 4.00000000000000000000, 4.00000000000000000000, 0.00000000000000000000, 0.00000000000000000000, 4.00000000000000000000, 4.00000000000000000000, 4.00000000000000000000, 4.00000000000000000000, 4.00000000000000000000, 4.00000000000000000000, 4.00000000000000000000, 4.00000000000000000000, 1667.00000000000000000000, 1686.00000000000000000000, 0.00000000000000000000
104.00000000000000000000, 0.00000000000000000000, 4026.15374770155310000000, 4717.43578207955490000000, 4198.46143579577350000000, 4628.71783553104340000000, 4273.84604933699480000000, 4793.84603662133760000000, 4281.02553634092060000000, 4295.38451034877200000000, 4451.28194243401870000000, 4862.05116315863320000000, 4461.53835243962750000000, 4146.66656526745100000000, 4522.05117147271630000000, 4245.64092182157130000000, 498.00000000000000000000, 4.00000000000000000000, 4.00000000000000000000, 4.00000000000000000000, 4.00000000000000000000, 4.00000000000000000000, 4.00000000000000000000, 0.00000000000000000000, 0.00000000000000000000, 4.00000000000000000000, 4.00000000000000000000, 4.00000000000000000000, 4.00000000000000000000, 4.00000000000000000000, 4.00000000000000000000, 4.00000000000000000000, 4.00000000000000000000, 1668.00000000000000000000, 1685.00000000000000000000, 0.00000000000000000000
105.00000000000000000000, 0.00000000000000000000, 4039.99990120912430000000, 4724.61526908348150000000, 4203.58964079857740000000, 4631.79475853272560000000, 4277.94861333923840000000, 4793.84603662133760000000, 4280.51271584064030000000, 4294.87168984849180000000, 4445.12809643065430000000, 4861.53834265835210000000, 4466.66655744243140000000, 4159.99989827474200000000, 4529.23065847664200000000, 4257.43579332802160000000, 494.00000000000000000000, 4.00000000000000000000, 4.00000000000000000000, 4.00000000000000000000, 4.00000000000000000000, 4.00000000000000000000, 4.00000000000000000000, 0.00000000000000000000, 0.00000000000000000000, 4.00000000000000000000, 4.00000000000000000000, 4.00000000000000000000, 4.00000000000000000000, 4.00000000000000000000, 4.00000000000000000000, 4.00000000000000000000, 4.00000000000000000000, 1667.00000000000000000000, 1686.00000000000000000000, 0.00000000000000000000
106.00000000000000000000, 0.00000000000000000000, 4044.61528571164810000000, 4721.02552558151820000000, 4210.76912780250310000000, 4631.79475853272560000000, 4277.43579283895720000000, 4786.15372911713080000000, 4278.46143383951860000000, 4295.89733084905220000000, 4444.61527593037320000000, 4862.56398365891350000000, 4465.64091644187010000000, 4164.61528277726570000000, 4535.89732498028750000000, 4262.56399833082560000000, 503.00000000000000000000, 4.00000000000000000000, 4.00000000000000000000, 4.00000000000000000000, 4.00000000000000000000, 4.00000000000000000000, 4.00000000000000000000, 0.00000000000000000000, 0.00000000000000000000, 4.00000000000000000000, 4.00000000000000000000, 4.00000000000000000000, 4.00000000000000000000, 4.00000000000000000000, 4.00000000000000000000, 4.00000000000000000000, 4.00000000000000000000, 1668.00000000000000000000, 1686.00000000000000000000, 0.00000000000000000000
107.00000000000000000000, 0.00000000000000000000, 4044.61528571164810000000, 4722.56398708235970000000, 4213.84605080418620000000, 4636.41014303524930000000, 4276.41015183839680000000, 4780.51270361404660000000, 4277.94861333923840000000, 4296.41015134933330000000, 4444.10245543009300000000, 4861.02552215807190000000, 4470.25630094439480000000, 4157.43579577334000000000, 4544.10245298477460000000, 4264.10245983166710000000, 493.00000000000000000000, 4.00000000000000000000, 4.00000000000000000000, 4.00000000000000000000, 4.00000000000000000000, 4.00000000000000000000, 4.00000000000000000000, 0.00000000000000000000, 0.00000000000000000000, 4.00000000000000000000, 4.00000000000000000000, 4.00000000000000000000, 4.00000000000000000000, 4.00000000000000000000, 4.00000000000000000000, 4.00000000000000000000, 4.00000000000000000000, 1669.00000000000000000000, 1685.00000000000000000000, 0.00000000000000000000
108.00000000000000000000, 0.00000000000000000000, 4043.58964471108720000000, 4731.79475608740720000000, 4207.69220480082090000000, 4637.43578403580980000000, 4276.41015183839680000000, 4785.64090861685050000000, 4278.46143383951860000000, 4296.41015134933330000000, 4445.12809643065430000000, 4862.05116315863320000000, 4476.92296744803930000000, 4155.38451377221830000000, 4545.12809398533500000000, 4259.99989582942360000000, 498.00000000000000000000, 4.00000000000000000000, 4.00000000000000000000, 4.00000000000000000000, 4.00000000000000000000, 4.00000000000000000000, 4.00000000000000000000, 0.00000000000000000000, 0.00000000000000000000, 4.00000000000000000000, 4.00000000000000000000, 4.00000000000000000000, 4.00000000000000000000, 4.00000000000000000000, 4.00000000000000000000, 4.00000000000000000000, 4.00000000000000000000, 1667.00000000000000000000, 1687.00000000000000000000, 0.00000000000000000000
109.00000000000000000000, 0.00000000000000000000, 4042.05118321024610000000, 4734.35885858880920000000, 4201.02553829717540000000, 4631.79475853272560000000, 4276.92297233867700000000, 4790.76911361965450000000, 4278.46143383951860000000, 4296.41015134933330000000, 4453.84604493542070000000, 4869.74347066283920000000, 4474.87168544691850000000, 4154.35887277165780000000, 4539.99988898253100000000, 4253.84604982605830000000, 494.00000000000000000000, 4.00000000000000000000, 4.00000000000000000000, 4.00000000000000000000, 4.00000000000000000000, 4.00000000000000000000, 4.00000000000000000000, 0.00000000000000000000, 0.00000000000000000000, 4.00000000000000000000, 4.00000000000000000000, 4.00000000000000000000, 4.00000000000000000000, 4.00000000000000000000, 4.00000000000000000000, 4.00000000000000000000, 4.00000000000000000000, 1669.00000000000000000000, 1686.00000000000000000000, 0.00000000000000000000
110.00000000000000000000, 0.00000000000000000000, 4042.56400371052680000000, 4731.79475608740720000000, 4199.99989729661500000000, 4630.25629703188410000000, 4277.94861333923840000000, 4788.20501111825250000000, 4279.99989534035920000000, 4296.92297184961350000000, 4463.07681394046810000000, 4877.43577816704510000000, 4472.30758294551560000000, 4152.30759077053610000000, 4543.58963248449440000000, 4256.92297282774050000000, 503.00000000000000000000, 4.00000000000000000000, 4.00000000000000000000, 4.00000000000000000000, 4.00000000000000000000, 4.00000000000000000000, 4.00000000000000000000, 0.00000000000000000000, 0.00000000000000000000, 4.00000000000000000000, 4.00000000000000000000, 4.00000000000000000000, 4.00000000000000000000, 4.00000000000000000000, 4.00000000000000000000, 4.00000000000000000000, 4.00000000000000000000, 1667.00000000000000000000, 1688.00000000000000000000, 0.00000000000000000000
111.00000000000000000000, 0.00000000000000000000, 4043.58964471108720000000, 4731.28193558712610000000, 4203.07682029829720000000, 4630.76911753216520000000, 4278.97425433979880000000, 4789.23065211881390000000, 4278.46143383951860000000, 4298.46143335045510000000, 4464.10245494102950000000, 4877.43577816704510000000, 4479.48706994944220000000, 4160.51271877502220000000, 4559.48706799318640000000, 4269.74348533475130000000, 493.00000000000000000000, 4.00000000000000000000, 4.00000000000000000000, 4.00000000000000000000, 4.00000000000000000000, 4.00000000000000000000, 4.00000000000000000000, 0.00000000000000000000, 0.00000000000000000000, 4.00000000000000000000, 4.00000000000000000000, 4.00000000000000000000, 4.00000000000000000000, 4.00000000000000000000, 4.00000000000000000000, 4.00000000000000000000, 4.00000000000000000000, 1668.00000000000000000000, 1688.00000000000000000000, 0.00000000000000000000
112.00000000000000000000, 0.00000000000000000000, 4046.66656771276980000000, 4732.30757658768740000000, 4209.74348680194270000000, 4631.79475853272560000000, 4276.92297233867700000000, 4790.25629311937430000000, 4277.94861333923840000000, 4297.94861285017400000000, 4462.05117293990770000000, 4879.48706016816690000000, 4490.25630045533030000000, 4173.84605178231320000000, 4567.17937549739330000000, 4279.48707484007900000000, 498.00000000000000000000, 4.00000000000000000000, 4.00000000000000000000, 4.00000000000000000000, 4.00000000000000000000, 4.00000000000000000000, 4.00000000000000000000, 0.00000000000000000000, 0.00000000000000000000, 4.00000000000000000000, 4.00000000000000000000, 4.00000000000000000000, 4.00000000000000000000, 4.00000000000000000000, 4.00000000000000000000, 4.00000000000000000000, 4.00000000000000000000, 1668.00000000000000000000, 1687.00000000000000000000, 0.00000000000000000000
113.00000000000000000000, 0.00000000000000000000, 4053.84605471669560000000, 4732.82039708796760000000, 4217.43579430614860000000, 4634.35886103412760000000, 4274.87169033755530000000, 4791.28193411993560000000, 4278.97425433979880000000, 4296.92297184961350000000, 4467.17937794271170000000, 4889.74347017377570000000, 4494.35886445757390000000, 4175.89733378343500000000, 4559.48706799318640000000, 4279.48707484007900000000, 494.00000000000000000000, 4.00000000000000000000, 4.00000000000000000000, 4.00000000000000000000, 4.00000000000000000000, 4.00000000000000000000, 4.00000000000000000000, 0.00000000000000000000, 0.00000000000000000000, 4.00000000000000000000, 4.00000000000000000000, 4.00000000000000000000, 4.00000000000000000000, 4.00000000000000000000, 4.00000000000000000000, 4.00000000000000000000, 4.00000000000000000000, 1668.00000000000000000000, 1687.00000000000000000000, 0.00000000000000000000
114.00000000000000000000, 0.00000000000000000000, 4060.51272122034110000000, 4730.25629458656570000000, 4217.94861480642880000000, 4632.82039953328600000000, 4277.43579283895720000000, 4791.79475462021580000000, 4280.51271584064030000000, 4296.41015134933330000000, 4468.71783944355320000000, 4888.71782917321430000000, 4485.12809545252640000000, 4170.76912878063100000000, 4553.84604249010230000000, 4278.97425433979880000000, 503.00000000000000000000, 4.00000000000000000000, 4.00000000000000000000, 4.00000000000000000000, 4.00000000000000000000, 4.00000000000000000000, 4.00000000000000000000, 0.00000000000000000000, 0.00000000000000000000, 4.00000000000000000000, 4.00000000000000000000, 4.00000000000000000000, 4.00000000000000000000, 4.00000000000000000000, 4.00000000000000000000, 4.00000000000000000000, 4.00000000000000000000, 1668.00000000000000000000, 1687.00000000000000000000, 0.00000000000000000000
115.00000000000000000000, 0.00000000000000000000, 4060.51272122034110000000, 4721.53834608179840000000, 4217.43579430614860000000, 4631.28193803244540000000, 4276.92297233867700000000, 4787.17937011769210000000, 4279.48707484007900000000, 4296.92297184961350000000, 4464.10245494102950000000, 4877.94859866732530000000, 4480.51271095000270000000, 4174.35887228259340000000, 4556.41014499150420000000, 4280.51271584064030000000, 493.00000000000000000000, 4.00000000000000000000, 4.00000000000000000000, 4.00000000000000000000, 4.00000000000000000000, 4.00000000000000000000, 4.00000000000000000000, 0.00000000000000000000, 0.00000000000000000000, 4.00000000000000000000, 4.00000000000000000000, 4.00000000000000000000, 4.00000000000000000000, 4.00000000000000000000, 4.00000000000000000000, 4.00000000000000000000, 4.00000000000000000000, 1668.00000000000000000000, 1687.00000000000000000000, 0.00000000000000000000
116.00000000000000000000, 0.00000000000000000000, 4059.99990072006090000000, 4715.89732057871420000000, 4223.07681980923370000000, 4629.23065603132360000000, 4269.74348533475130000000, 4781.53834461460700000000, 4279.48707484007900000000, 4297.94861285017400000000, 4457.43578843738400000000, 4874.87167566564310000000, 4485.64091595280660000000, 4181.53835928651920000000, 4552.82040148954180000000, 4279.99989534035920000000, 498.00000000000000000000, 4.00000000000000000000, 4.00000000000000000000, 4.00000000000000000000, 4.00000000000000000000, 4.00000000000000000000, 4.00000000000000000000, 0.00000000000000000000, 0.00000000000000000000, 4.00000000000000000000, 4.00000000000000000000, 4.00000000000000000000, 4.00000000000000000000, 4.00000000000000000000, 4.00000000000000000000, 4.00000000000000000000, 4.00000000000000000000, 1668.00000000000000000000, 1686.00000000000000000000, 0.00000000000000000000
117.00000000000000000000, 0.00000000000000000000, 4060.51272122034110000000, 4714.35885907787270000000, 4225.12810181035550000000, 4626.15373302964140000000, 4266.66656233306910000000, 4780.51270361404660000000, 4283.58963884232250000000, 4297.43579234989370000000, 4451.79476293429890000000, 4877.43577816704510000000, 4481.02553145028290000000, 4181.02553878623890000000, 4541.53835048337260000000, 4278.97425433979880000000, 494.00000000000000000000, 4.00000000000000000000, 4.00000000000000000000, 4.00000000000000000000, 4.00000000000000000000, 4.00000000000000000000, 4.00000000000000000000, 0.00000000000000000000, 0.00000000000000000000, 4.00000000000000000000, 4.00000000000000000000, 4.00000000000000000000, 4.00000000000000000000, 4.00000000000000000000, 4.00000000000000000000, 4.00000000000000000000, 4.00000000000000000000, 1669.00000000000000000000, 1687.00000000000000000000, 0.00000000000000000000
118.00000000000000000000, 0.00000000000000000000, 4058.46143921921930000000, 4719.48706408067660000000, 4220.51271730783080000000, 4633.33322003356720000000, 4274.35886983727510000000, 4784.10244711600990000000, 4282.05117734148100000000, 4295.89733084905220000000, 4449.74348093317800000000, 4872.30757316424110000000, 4474.87168544691850000000, 4173.84605178231320000000, 4538.46142748168950000000, 4279.99989534035920000000, 503.00000000000000000000, 4.00000000000000000000, 4.00000000000000000000, 4.00000000000000000000, 4.00000000000000000000, 4.00000000000000000000, 4.00000000000000000000, 0.00000000000000000000, 0.00000000000000000000, 4.00000000000000000000, 4.00000000000000000000, 4.00000000000000000000, 4.00000000000000000000, 4.00000000000000000000, 4.00000000000000000000, 4.00000000000000000000, 4.00000000000000000000, 1668.00000000000000000000, 1686.00000000000000000000, 0.00000000000000000000
119.00000000000000000000, 0.00000000000000000000, 4054.87169571725640000000, 4731.28193558712610000000, 4220.51271730783080000000, 4643.07680953889480000000, 4278.46143383951860000000, 4784.10244711600990000000, 4277.43579283895720000000, 4295.38451034877200000000, 4447.17937843177510000000, 4864.61526566003520000000, 4470.76912144467500000000, 4171.79476978119150000000, 4539.99988898253100000000, 4273.84604933699480000000, 493.00000000000000000000, 4.00000000000000000000, 4.00000000000000000000, 4.00000000000000000000, 4.00000000000000000000, 4.00000000000000000000, 4.00000000000000000000, 0.00000000000000000000, 0.00000000000000000000, 4.00000000000000000000, 4.00000000000000000000, 4.00000000000000000000, 4.00000000000000000000, 4.00000000000000000000, 4.00000000000000000000, 4.00000000000000000000, 4.00000000000000000000, 1669.00000000000000000000, 1687.00000000000000000000, 0.00000000000000000000
120.00000000000000000000, 0.00000000000000000000, 4049.23067021417180000000, 4734.35885858880920000000, 4217.94861480642880000000, 4643.58963003917510000000, 4277.94861333923840000000, 4781.02552411432680000000, 4276.92297233867700000000, 4296.92297184961350000000, 4442.05117342897120000000, 4857.94859915638970000000, 4457.94860893766420000000, 4164.61528277726570000000, 4530.76911997748360000000, 4263.58963933138600000000, 498.00000000000000000000, 4.00000000000000000000, 4.00000000000000000000, 4.00000000000000000000, 4.00000000000000000000, 4.00000000000000000000, 4.00000000000000000000, 0.00000000000000000000, 0.00000000000000000000, 4.00000000000000000000, 4.00000000000000000000, 4.00000000000000000000, 4.00000000000000000000, 4.00000000000000000000, 4.00000000000000000000, 4.00000000000000000000, 4.00000000000000000000, 1669.00000000000000000000, 1688.00000000000000000000, 0.00000000000000000000
121.00000000000000000000, 0.00000000000000000000, 4044.10246521136790000000, 4730.76911508684590000000, 4213.84605080418620000000, 4641.53834803805330000000, 4279.99989534035920000000, 4783.07680611544860000000, 4279.48707484007900000000, 4297.43579234989370000000, 4441.02553242841080000000, 4858.97424015695010000000, 4456.41014743682260000000, 4155.89733427249850000000, 4523.07681247327760000000, 4261.02553682998400000000, 494.00000000000000000000, 4.00000000000000000000, 4.00000000000000000000, 4.00000000000000000000, 4.00000000000000000000, 4.00000000000000000000, 4.00000000000000000000, 0.00000000000000000000, 0.00000000000000000000, 4.00000000000000000000, 4.00000000000000000000, 4.00000000000000000000, 4.00000000000000000000, 4.00000000000000000000, 4.00000000000000000000, 4.00000000000000000000, 4.00000000000000000000, 1670.00000000000000000000, 1689.00000000000000000000, 0.00000000000000000000
122.00000000000000000000, 0.00000000000000000000, 4043.07682421080700000000, 4734.87167908908940000000, 4222.05117880867240000000, 4638.46142503637110000000, 4283.07681834204230000000, 4794.87167762189800000000, 4277.43579283895720000000, 4295.38451034877200000000, 4449.23066043289690000000, 4869.23065016255900000000, 4469.23065994383340000000, 4160.51271877502220000000, 4531.28194047776380000000, 4264.10245983166710000000, 503.00000000000000000000, 4.00000000000000000000, 4.00000000000000000000, 4.00000000000000000000, 4.00000000000000000000, 4.00000000000000000000, 4.00000000000000000000, 0.00000000000000000000, 0.00000000000000000000, 4.00000000000000000000, 4.00000000000000000000, 4.00000000000000000000, 4.00000000000000000000, 4.00000000000000000000, 4.00000000000000000000, 4.00000000000000000000, 4.00000000000000000000, 1669.00000000000000000000, 1689.00000000000000000000, 0.00000000000000000000
123.00000000000000000000, 0.00000000000000000000, 4044.61528571164810000000, 4733.33321758824790000000, 4235.38451181596340000000, 4631.79475853272560000000, 4283.07681834204230000000, 4796.92295962301980000000, 4276.92297233867700000000, 4294.87168984849180000000, 4450.76912193373850000000, 4871.28193216368070000000, 4468.20501894327300000000, 4163.07682127642420000000, 4541.02552998309150000000, 4264.10245983166710000000, 493.00000000000000000000, 4.00000000000000000000, 4.00000000000000000000, 4.00000000000000000000, 4.00000000000000000000, 4.00000000000000000000, 4.00000000000000000000, 0.00000000000000000000, 0.00000000000000000000, 4.00000000000000000000, 4.00000000000000000000, 4.00000000000000000000, 4.00000000000000000000, 4.00000000000000000000, 4.00000000000000000000, 4.00000000000000000000, 4.00000000000000000000, 1669.00000000000000000000, 1690.00000000000000000000, 0.00000000000000000000
124.00000000000000000000, 0.00000000000000000000, 4042.05118321024610000000, 4723.58962808292020000000, 4234.87169131568320000000, 4630.76911753216520000000, 4281.53835684120080000000, 4783.07680611544860000000, 4277.94861333923840000000, 4296.41015134933330000000, 4444.61527593037320000000, 4866.15372716087590000000, 4465.12809594158990000000, 4156.92297527305980000000, 4538.97424798197060000000, 4262.56399833082560000000, 498.00000000000000000000, 4.00000000000000000000, 4.00000000000000000000, 4.00000000000000000000, 4.00000000000000000000, 4.00000000000000000000, 4.00000000000000000000, 0.00000000000000000000, 0.00000000000000000000, 4.00000000000000000000, 4.00000000000000000000, 4.00000000000000000000, 4.00000000000000000000, 4.00000000000000000000, 4.00000000000000000000, 4.00000000000000000000, 4.00000000000000000000, 1669.00000000000000000000, 1690.00000000000000000000, 0.00000000000000000000
125.00000000000000000000, 0.00000000000000000000, 4042.56400371052680000000, 4725.64091008404190000000, 4231.28194781371990000000, 4631.79475853272560000000, 4281.53835684120080000000, 4781.02552411432680000000, 4278.46143383951860000000, 4296.92297184961350000000, 4443.07681442953250000000, 4866.66654766115700000000, 4472.30758294551560000000, 4155.89733427249850000000, 4538.97424798197060000000, 4265.12810083222760000000, 494.00000000000000000000, 4.00000000000000000000, 4.00000000000000000000, 4.00000000000000000000, 4.00000000000000000000, 4.00000000000000000000, 4.00000000000000000000, 0.00000000000000000000, 0.00000000000000000000, 4.00000000000000000000, 4.00000000000000000000, 4.00000000000000000000, 4.00000000000000000000, 4.00000000000000000000, 4.00000000000000000000, 4.00000000000000000000, 4.00000000000000000000, 1669.00000000000000000000, 1690.00000000000000000000, 0.00000000000000000000
126.00000000000000000000, 0.00000000000000000000, 4054.35887521697620000000, 4735.38449958936960000000, 4238.46143481764560000000, 4631.79475853272560000000, 4282.56399784176210000000, 4789.74347261909410000000, 4277.43579283895720000000, 4295.38451034877200000000, 4448.20501943233650000000, 4871.79475266396090000000, 4474.87168544691850000000, 4164.10246227698550000000, 4549.23065798757850000000, 4270.76912633531170000000, 503.00000000000000000000, 4.00000000000000000000, 4.00000000000000000000, 4.00000000000000000000, 4.00000000000000000000, 4.00000000000000000000, 4.00000000000000000000, 0.00000000000000000000, 0.00000000000000000000, 4.00000000000000000000, 4.00000000000000000000, 4.00000000000000000000, 4.00000000000000000000, 4.00000000000000000000, 4.00000000000000000000, 4.00000000000000000000, 4.00000000000000000000, 1669.00000000000000000000, 1688.00000000000000000000, 0.00000000000000000000
127.00000000000000000000, 0.00000000000000000000, 4063.58964422202370000000, 4737.43578159049140000000, 4248.20502432297420000000, 4632.30757903300580000000, 4281.02553634092060000000, 4787.69219061797230000000, 4277.43579283895720000000, 4296.92297184961350000000, 4455.38450643626220000000, 4873.84603466508270000000, 4476.92296744803930000000, 4177.94861578455680000000, 4556.41014499150420000000, 4280.51271584064030000000, 493.00000000000000000000, 4.00000000000000000000, 4.00000000000000000000, 4.00000000000000000000, 4.00000000000000000000, 4.00000000000000000000, 4.00000000000000000000, 0.00000000000000000000, 0.00000000000000000000, 4.00000000000000000000, 4.00000000000000000000, 4.00000000000000000000, 4.00000000000000000000, 4.00000000000000000000, 4.00000000000000000000, 4.00000000000000000000, 4.00000000000000000000, 1668.00000000000000000000, 1690.00000000000000000000, 0.00000000000000000000
128.00000000000000000000, 0.00000000000000000000, 4061.02554172062170000000, 4733.33321758824790000000, 4250.76912682437610000000, 4635.38450203468890000000, 4278.97425433979880000000, 4781.02552411432680000000, 4277.94861333923840000000, 4298.46143335045510000000, 4459.99989093878590000000, 4874.87167566564310000000, 4480.51271095000270000000, 4186.15374378904290000000, 4554.35886299038250000000, 4285.64092084344430000000, 498.00000000000000000000, 4.00000000000000000000, 4.00000000000000000000, 4.00000000000000000000, 4.00000000000000000000, 4.00000000000000000000, 4.00000000000000000000, 0.00000000000000000000, 0.00000000000000000000, 4.00000000000000000000, 4.00000000000000000000, 4.00000000000000000000, 4.00000000000000000000, 4.00000000000000000000, 4.00000000000000000000, 4.00000000000000000000, 4.00000000000000000000, 1670.00000000000000000000, 1689.00000000000000000000, 0.00000000000000000000
0.00000000000000000000, 0.00000000000000000000, 4059.48708021978020000000, 4733.84603808852900000000, 4251.28194732465640000000, 4639.48706603693150000000, 4281.53835684120080000000, 4781.53834461460700000000, 4277.94861333923840000000, 4296.41015134933330000000, 4461.02553193934640000000, 4877.43577816704510000000, 4477.94860844860070000000, 4181.02553878623890000000, 4550.76911948842010000000, 4283.58963884232250000000, 509.00000000000000000000, 4.00000000000000000000, 4.00000000000000000000, 4.00000000000000000000, 4.00000000000000000000, 4.00000000000000000000, 4.00000000000000000000, 0.00000000000000000000, 0.00000000000000000000, 4.00000000000000000000, 4.00000000000000000000, 4.00000000000000000000, 4.00000000000000000000, 4.00000000000000000000, 4.00000000000000000000, 4.00000000000000000000, 4.00000000000000000000, 1668.00000000000000000000, 1689.00000000000000000000, 0.00000000000000000000
1.00000000000000000000, 0.00000000000000000000, 4061.53836222090190000000, 4739.48706359161320000000, 4246.66656282213260000000, 4637.94860453609090000000, 4283.58963884232250000000, 4789.74347261909410000000, 4278.46143383951860000000, 4297.43579234989370000000, 4461.02553193934640000000, 4877.94859866732530000000, 4477.94860844860070000000, 4171.79476978119150000000, 4553.84604249010230000000, 4281.02553634092060000000, 509.00000000000000000000, 4.00000000000000000000, 4.00000000000000000000, 4.00000000000000000000, 4.00000000000000000000, 4.00000000000000000000, 4.00000000000000000000, 0.00000000000000000000, 0.00000000000000000000, 4.00000000000000000000, 4.00000000000000000000, 4.00000000000000000000, 4.00000000000000000000, 4.00000000000000000000, 4.00000000000000000000, 4.00000000000000000000, 4.00000000000000000000, 1669.00000000000000000000, 1689.00000000000000000000, 0.00000000000000000000
2.00000000000000000000, 0.00000000000000000000, 4054.87169571725640000000, 4735.89732008964980000000, 4236.92297331680490000000, 4630.76911753216520000000, 4279.48707484007900000000, 4795.38449812217820000000, 4281.53835684120080000000, 4298.97425385073530000000, 4461.53835243962750000000, 4877.94859866732530000000, 4479.48706994944220000000, 4167.69220577894790000000, 4552.30758098926070000000, 4272.82040833643350000000, 524.00000000000000000000, 4.00000000000000000000, 4.00000000000000000000, 4.00000000000000000000, 4.00000000000000000000, 4.00000000000000000000, 4.00000000000000000000, 0.00000000000000000000, 0.00000000000000000000, 4.00000000000000000000, 4.00000000000000000000, 4.00000000000000000000, 4.00000000000000000000, 4.00000000000000000000, 4.00000000000000000000, 4.00000000000000000000, 4.00000000000000000000, 1669.00000000000000000000, 1688.00000000000000000000, 0.00000000000000000000
3.00000000000000000000, 0.00000000000000000000, 4043.07682421080700000000, 4719.99988458095780000000, 4231.79476831400010000000, 4623.07681002795830000000, 4276.41015183839680000000, 4794.87167762189800000000, 4283.58963884232250000000, 4298.46143335045510000000, 4458.97424993822550000000, 4873.84603466508270000000, 4470.76912144467500000000, 4159.99989827474200000000, 4538.97424798197060000000, 4264.10245983166710000000, 528.00000000000000000000, 4.00000000000000000000, 4.00000000000000000000, 4.00000000000000000000, 4.00000000000000000000, 4.00000000000000000000, 4.00000000000000000000, 0.00000000000000000000, 0.00000000000000000000, 4.00000000000000000000, 4.00000000000000000000, 4.00000000000000000000, 4.00000000000000000000, 4.00000000000000000000, 4.00000000000000000000, 4.00000000000000000000, 4.00000000000000000000, 1669.00000000000000000000, 1688.00000000000000000000, 0.00000000000000000000
4.00000000000000000000, 0.00000000000000000000, 4039.99990120912430000000, 4714.87167957815290000000, 4232.82040931456140000000, 4615.38450252375240000000, 4276.92297233867700000000, 4797.43578012330000000000, 4280.51271584064030000000, 4297.94861285017400000000, 4457.43578843738400000000, 4869.23065016255900000000, 4466.66655744243140000000, 4158.46143677390050000000, 4531.79476097804400000000, 4265.64092133250780000000, 543.00000000000000000000, 4.00000000000000000000, 4.00000000000000000000, 4.00000000000000000000, 4.00000000000000000000, 4.00000000000000000000, 4.00000000000000000000, 0.00000000000000000000, 0.00000000000000000000, 4.00000000000000000000, 4.00000000000000000000, 4.00000000000000000000, 4.00000000000000000000, 4.00000000000000000000, 4.00000000000000000000, 4.00000000000000000000, 4.00000000000000000000, 1670.00000000000000000000, 1688.00000000000000000000, 0.00000000000000000000
5.00000000000000000000, 0.00000000000000000000, 4044.61528571164810000000, 4729.74347408628550000000, 4232.30758881428120000000, 4619.48706652599590000000, 4279.99989534035920000000, 4796.92295962301980000000, 4278.46143383951860000000, 4298.46143335045510000000, 4461.02553193934640000000, 4872.82039366452140000000, 4475.38450594719870000000, 4169.74348778006970000000, 4537.43578648112910000000, 4268.71784433419090000000, 506.00000000000000000000, 4.00000000000000000000, 4.00000000000000000000, 4.00000000000000000000, 4.00000000000000000000, 4.00000000000000000000, 4.00000000000000000000, 0.00000000000000000000, 0.00000000000000000000, 4.00000000000000000000, 4.00000000000000000000, 4.00000000000000000000, 4.00000000000000000000, 4.00000000000000000000, 4.00000000000000000000, 4.00000000000000000000, 4.00000000000000000000, 1670.00000000000000000000, 1689.00000000000000000000, 0.00000000000000000000
6.00000000000000000000, 0.00000000000000000000, 4049.23067021417180000000, 4738.97424309133290000000, 4231.79476831400010000000, 4633.33322003356720000000, 4279.48707484007900000000, 4785.64090861685050000000, 4279.48707484007900000000, 4298.46143335045510000000, 4459.48707043850570000000, 4877.94859866732530000000, 4477.94860844860070000000, 4170.25630828035080000000, 4543.58963248449440000000, 4266.15374183278800000000, 0.00000000000000000000, 4.00000000000000000000, 4.00000000000000000000, 4.00000000000000000000, 4.00000000000000000000, 4.00000000000000000000, 4.00000000000000000000, 0.00000000000000000000, 0.00000000000000000000, 4.00000000000000000000, 4.00000000000000000000, 4.00000000000000000000, 4.00000000000000000000, 4.00000000000000000000, 4.00000000000000000000, 4.00000000000000000000, 4.00000000000000000000, 1670.00000000000000000000, 1688.00000000000000000000, 0.00000000000000000000
7.00000000000000000000, 0.00000000000000000000, 4046.66656771276980000000, 4727.69219208516370000000, 4231.79476831400010000000, 4628.20501503076230000000, 4274.87169033755530000000, 4777.94860111264460000000, 4278.46143383951860000000, 4298.97425385073530000000, 4448.20501943233650000000, 4867.69218866171740000000, 4463.07681394046810000000, 4158.46143677390050000000, 4537.43578648112910000000, 4263.07681883110580000000, 0.00000000000000000000, 4.00000000000000000000, 4.00000000000000000000, 4.00000000000000000000, 4.00000000000000000000, 4.00000000000000000000, 4.00000000000000000000, 0.00000000000000000000, 0.00000000000000000000, 4.00000000000000000000, 4.00000000000000000000, 4.00000000000000000000, 4.00000000000000000000, 4.00000000000000000000, 4.00000000000000000000, 4.00000000000000000000, 4.00000000000000000000, 1670.00000000000000000000, 1689.00000000000000000000, 0.00000000000000000000
8.00000000000000000000, 0.00000000000000000000, 4042.56400371052680000000, 4714.87167957815290000000, 4230.76912731343960000000, 4614.35886152319110000000, 4271.28194683559290000000, 4783.58962661572880000000, 4276.41015183839680000000, 4298.97425385073530000000, 4441.02553242841080000000, 4855.89731715526800000000, 4459.48707043850570000000, 4158.97425727418160000000, 4532.30758147832510000000, 4263.07681883110580000000, 414.00000000000000000000, 4.00000000000000000000, 4.00000000000000000000, 4.00000000000000000000, 4.00000000000000000000, 4.00000000000000000000, 4.00000000000000000000, 0.00000000000000000000, 0.00000000000000000000, 4.00000000000000000000, 4.00000000000000000000, 4.00000000000000000000, 4.00000000000000000000, 4.00000000000000000000, 4.00000000000000000000, 4.00000000000000000000, 4.00000000000000000000, 1670.00000000000000000000, 1688.00000000000000000000, 0.00000000000000000000
9.00000000000000000000, 0.00000000000000000000, 4047.17938821305050000000, 4722.05116658207860000000, 4232.30758881428120000000, 4617.43578452487420000000, 4274.35886983727510000000, 4786.66654961741190000000, 4279.48707484007900000000, 4297.43579234989370000000, 4451.28194243401870000000, 4867.69218866171740000000, 4474.35886494663740000000, 4171.28194928091120000000, 4537.43578648112910000000, 4268.20502383390980000000, 460.00000000000000000000, 4.00000000000000000000, 4.00000000000000000000, 4.00000000000000000000, 4.00000000000000000000, 4.00000000000000000000, 4.00000000000000000000, 0.00000000000000000000, 0.00000000000000000000, 4.00000000000000000000, 4.00000000000000000000, 4.00000000000000000000, 4.00000000000000000000, 4.00000000000000000000, 4.00000000000000000000, 4.00000000000000000000, 4.00000000000000000000, 1669.00000000000000000000, 1688.00000000000000000000, 0.00000000000000000000
10.00000000000000000000, 0.00000000000000000000, 4053.84605471669560000000, 4734.35885858880920000000, 4235.38451181596340000000, 4618.97424602571480000000, 4275.38451083783550000000, 4782.56398561516830000000, 4281.02553634092060000000, 4297.94861285017400000000, 4457.43578843738400000000, 4877.43577816704510000000, 4476.92296744803930000000, 4178.46143628483700000000, 4539.99988898253100000000, 4278.46143383951860000000, 503.00000000000000000000, 4.00000000000000000000, 4.00000000000000000000, 4.00000000000000000000, 4.00000000000000000000, 4.00000000000000000000, 4.00000000000000000000, 0.00000000000000000000, 0.00000000000000000000, 4.00000000000000000000, 4.00000000000000000000, 4.00000000000000000000, 4.00000000000000000000, 4.00000000000000000000, 4.00000000000000000000, 4.00000000000000000000, 4.00000000000000000000, 1670.00000000000000000000, 1687.00000000000000000000, 0.00000000000000000000
11.00000000000000000000, 0.00000000000000000000, 4053.33323421641530000000, 4729.74347408628550000000, 4235.89733231624360000000, 4618.46142552543460000000, 4268.20502383390980000000, 4781.02552411432680000000, 4278.97425433979880000000, 4297.94861285017400000000, 4448.71783993261670000000, 4864.10244515975410000000, 4468.71783944355320000000, 4177.94861578455680000000, 4535.38450448000730000000, 4281.53835684120080000000, 493.00000000000000000000, 4.00000000000000000000, 4.00000000000000000000, 4.00000000000000000000, 4.00000000000000000000, 4.00000000000000000000, 4.00000000000000000000, 0.00000000000000000000, 0.00000000000000000000, 4.00000000000000000000, 4.00000000000000000000, 4.00000000000000000000, 4.00000000000000000000, 4.00000000000000000000, 4.00000000000000000000, 4.00000000000000000000, 4.00000000000000000000, 1669.00000000000000000000, 1687.00000000000000000000, 0.00000000000000000000
12.00000000000000000000, 0.00000000000000000000, 4051.28195221529360000000, 4723.07680758264000000000, 4235.38451181596340000000, 4625.64091252936030000000, 4265.64092133250780000000, 4784.10244711600990000000, 4276.41015183839680000000, 4295.89733084905220000000, 4447.69219893205630000000, 4861.53834265835210000000, 4470.76912144467500000000, 4173.84605178231320000000, 4532.82040197860530000000, 4278.97425433979880000000, 498.00000000000000000000, 4.00000000000000000000, 4.00000000000000000000, 4.00000000000000000000, 4.00000000000000000000, 4.00000000000000000000, 4.00000000000000000000, 0.00000000000000000000, 0.00000000000000000000, 4.00000000000000000000, 4.00000000000000000000, 4.00000000000000000000, 4.00000000000000000000, 4.00000000000000000000, 4.00000000000000000000, 4.00000000000000000000, 4.00000000000000000000, 1670.00000000000000000000, 1688.00000000000000000000, 0.00000000000000000000
