title:z1                                                                              , recorded:09.12.13 13.52.11, sampling:128, subject:s1                                                                              , labels:COUNTER INTERPOLATED AF3 F7 F3 FC5 T7 P7 O1 O2 P8 T8 FC6 F4 F8 AF4 RAW_CQ CQ_AF3 CQ_F7 CQ_F3 CQ_FC5 CQ_T7 CQ_P7 CQ_O1 CQ_O2 CQ_P8 CQ_T8 CQ_FC6 CQ_F4 CQ_F8 CQ_AF4 CQ_CMS CQ_DRL GYROX GYROY MARKER, chan:36, units:emotiv
93.00000000000000000000, 0.00000000000000000000, 4035.38451670660060000000, 4721.02552558151820000000, 4262.56399833082560000000, 4645.12809154001660000000, 4232.30758881428120000000, 4554.87168349066270000000, 4272.82040833643350000000, 4296.92297184961350000000, 4479.48706994944220000000, 4891.28193167461630000000, 4433.84604542448510000000, 4181.53835928651920000000, 4400.51271290625750000000, 4215.89733280530710000000, 454.00000000000000000000, 4.00000000000000000000, 4.00000000000000000000, 4.00000000000000000000, 4.00000000000000000000, 4.00000000000000000000, 2.00000000000000000000, 0.00000000000000000000, 0.00000000000000000000, 4.00000000000000000000, 4.00000000000000000000, 4.00000000000000000000, 4.00000000000000000000, 4.00000000000000000000, 4.00000000000000000000, 4.00000000000000000000, 4.00000000000000000000, 1664.00000000000000000000, 1688.00000000000000000000, 0.00000000000000000000
94.00000000000000000000, 0.00000000000000000000, 4027.17938870211400000000, 4718.46142308011620000000, 4260.51271632970380000000, 4638.46142503637110000000, 4229.23066581259810000000, 4552.82040148954180000000, 4275.38451083783550000000, 4296.41015134933330000000, 4474.87168544691850000000, 4881.02552166900840000000, 4428.71784042168020000000, 4177.43579528427650000000, 4398.97425140541600000000, 4212.82040980362490000000, 501.00000000000000000000, 4.00000000000000000000, 4.00000000000000000000, 4.00000000000000000000, 4.00000000000000000000, 4.00000000000000000000, 2.00000000000000000000, 0.00000000000000000000, 0.00000000000000000000, 4.00000000000000000000, 4.00000000000000000000, 4.00000000000000000000, 4.00000000000000000000, 4.00000000000000000000, 4.00000000000000000000, 4.00000000000000000000, 4.00000000000000000000, 1665.00000000000000000000, 1687.00000000000000000000, 0.00000000000000000000
95.00000000000000000000, 0.00000000000000000000, 4016.92297869650570000000, 4706.66655157366680000000, 4252.82040882549790000000, 4630.76911753216520000000, 4220.51271730783080000000, 4553.84604249010230000000, 4275.89733133811660000000, 4297.94861285017400000000, 4476.41014694775910000000, 4873.33321416480160000000, 4413.33322541326830000000, 4168.71784677950930000000, 4381.53835439588240000000, 4202.56399979801700000000, 460.00000000000000000000, 4.00000000000000000000, 4.00000000000000000000, 4.00000000000000000000, 4.00000000000000000000, 4.00000000000000000000, 2.00000000000000000000, 0.00000000000000000000, 0.00000000000000000000, 4.00000000000000000000, 4.00000000000000000000, 4.00000000000000000000, 4.00000000000000000000, 4.00000000000000000000, 4.00000000000000000000, 4.00000000000000000000, 4.00000000000000000000, 1664.00000000000000000000, 1687.00000000000000000000, 0.00000000000000000000
96.00000000000000000000, 0.00000000000000000000, 4014.87169669538390000000, 4698.46142356917970000000, 4246.15374232185240000000, 4631.28193803244540000000, 4215.89733280530710000000, 4555.89732449122400000000, 4275.38451083783550000000, 4297.94861285017400000000, 4477.43578794832050000000, 4873.84603466508270000000, 4404.61527690850110000000, 4167.17938527866770000000, 4369.74348288943290000000, 4197.43579479521210000000, 490.00000000000000000000, 4.00000000000000000000, 4.00000000000000000000, 4.00000000000000000000, 4.00000000000000000000, 4.00000000000000000000, 2.00000000000000000000, 0.00000000000000000000, 0.00000000000000000000, 4.00000000000000000000, 4.00000000000000000000, 4.00000000000000000000, 4.00000000000000000000, 4.00000000000000000000, 4.00000000000000000000, 4.00000000000000000000, 4.00000000000000000000, 1665.00000000000000000000, 1686.00000000000000000000, 0.00000000000000000000
97.00000000000000000000, 0.00000000000000000000, 4011.79477369370170000000, 4701.53834657086190000000, 4245.12810132129110000000, 4632.30757903300580000000, 4216.41015330558820000000, 4553.84604249010230000000, 4275.38451083783550000000, 4297.94861285017400000000, 4473.33322394607690000000, 4872.30757316424110000000, 4410.25630241158520000000, 4170.25630828035080000000, 4374.35886739195670000000, 4199.99989729661500000000, 454.00000000000000000000, 4.00000000000000000000, 4.00000000000000000000, 4.00000000000000000000, 4.00000000000000000000, 4.00000000000000000000, 2.00000000000000000000, 0.00000000000000000000, 0.00000000000000000000, 4.00000000000000000000, 4.00000000000000000000, 4.00000000000000000000, 4.00000000000000000000, 4.00000000000000000000, 4.00000000000000000000, 4.00000000000000000000, 4.00000000000000000000, 1664.00000000000000000000, 1686.00000000000000000000, 0.00000000000000000000
98.00000000000000000000, 0.00000000000000000000, 4009.74349169257990000000, 4701.02552607058170000000, 4245.12810132129110000000, 4629.74347653160380000000, 4216.92297380586840000000, 4551.79476048898050000000, 4276.41015183839680000000, 4297.94861285017400000000, 4479.99989044972240000000, 4870.76911166339960000000, 4410.76912291186640000000, 4167.17938527866770000000, 4377.43579039363890000000, 4197.94861529549330000000, 501.00000000000000000000, 4.00000000000000000000, 4.00000000000000000000, 4.00000000000000000000, 4.00000000000000000000, 4.00000000000000000000, 2.00000000000000000000, 0.00000000000000000000, 0.00000000000000000000, 4.00000000000000000000, 4.00000000000000000000, 4.00000000000000000000, 4.00000000000000000000, 4.00000000000000000000, 4.00000000000000000000, 4.00000000000000000000, 4.00000000000000000000, 1664.00000000000000000000, 1686.00000000000000000000, 0.00000000000000000000
99.00000000000000000000, 0.00000000000000000000, 4015.89733769594480000000, 4701.02552607058170000000, 4248.20502432297420000000, 4635.38450203468890000000, 4216.41015330558820000000, 4553.84604249010230000000, 4277.94861333923840000000, 4295.38451034877200000000, 4490.25630045533030000000, 4875.89731666620450000000, 4414.87168691410900000000, 4170.25630828035080000000, 4379.48707239476060000000, 4201.02553829717540000000, 460.00000000000000000000, 4.00000000000000000000, 4.00000000000000000000, 4.00000000000000000000, 4.00000000000000000000, 4.00000000000000000000, 2.00000000000000000000, 0.00000000000000000000, 0.00000000000000000000, 4.00000000000000000000, 4.00000000000000000000, 4.00000000000000000000, 4.00000000000000000000, 4.00000000000000000000, 4.00000000000000000000, 4.00000000000000000000, 4.00000000000000000000, 1666.00000000000000000000, 1684.00000000000000000000, 0.00000000000000000000
100.00000000000000000000, 0.00000000000000000000, 4020.51272219846850000000, 4709.23065407506870000000, 4252.82040882549790000000, 4640.51270703749290000000, 4223.58964030951390000000, 4555.89732449122400000000, 4277.94861333923840000000, 4294.35886934821160000000, 4481.53835195056310000000, 4876.92295766676490000000, 4428.71784042168020000000, 4179.48707728539830000000, 4388.71784139980810000000, 4210.76912780250310000000, 490.00000000000000000000, 4.00000000000000000000, 4.00000000000000000000, 4.00000000000000000000, 4.00000000000000000000, 4.00000000000000000000, 2.00000000000000000000, 0.00000000000000000000, 0.00000000000000000000, 4.00000000000000000000, 4.00000000000000000000, 4.00000000000000000000, 4.00000000000000000000, 4.00000000000000000000, 4.00000000000000000000, 4.00000000000000000000, 4.00000000000000000000, 1665.00000000000000000000, 1684.00000000000000000000, 0.00000000000000000000
101.00000000000000000000, 0.00000000000000000000, 4018.97426069762740000000, 4708.20501307450740000000, 4253.84604982605830000000, 4636.41014303524930000000, 4230.25630681315940000000, 4554.87168349066270000000, 4277.94861333923840000000, 4296.92297184961350000000, 4470.76912144467500000000, 4872.30757316424110000000, 4424.61527641943760000000, 4178.97425678511720000000, 4389.74348240036850000000, 4211.28194830278330000000, 454.00000000000000000000, 4.00000000000000000000, 4.00000000000000000000, 4.00000000000000000000, 4.00000000000000000000, 4.00000000000000000000, 2.00000000000000000000, 0.00000000000000000000, 0.00000000000000000000, 4.00000000000000000000, 4.00000000000000000000, 4.00000000000000000000, 4.00000000000000000000, 4.00000000000000000000, 4.00000000000000000000, 4.00000000000000000000, 4.00000000000000000000, 1667.00000000000000000000, 1683.00000000000000000000, 0.00000000000000000000
102.00000000000000000000, 0.00000000000000000000, 4018.46144019734720000000, 4704.10244907226480000000, 4251.79476782493660000000, 4636.41014303524930000000, 4230.76912731343960000000, 4553.84604249010230000000, 4276.92297233867700000000, 4298.97425385073530000000, 4483.58963395168480000000, 4874.35885516536290000000, 4408.20502041046350000000, 4175.89733378343500000000, 4384.10245689728440000000, 4206.66656380025960000000, 501.00000000000000000000, 4.00000000000000000000, 4.00000000000000000000, 4.00000000000000000000, 4.00000000000000000000, 4.00000000000000000000, 2.00000000000000000000, 0.00000000000000000000, 0.00000000000000000000, 4.00000000000000000000, 4.00000000000000000000, 4.00000000000000000000, 4.00000000000000000000, 4.00000000000000000000, 4.00000000000000000000, 4.00000000000000000000, 4.00000000000000000000, 1668.00000000000000000000, 1684.00000000000000000000, 0.00000000000000000000
103.00000000000000000000, 0.00000000000000000000, 4020.51272219846850000000, 4707.69219257422720000000, 4253.84604982605830000000, 4642.05116853833440000000, 4230.76912731343960000000, 4555.89732449122400000000, 4275.38451083783550000000, 4296.92297184961350000000, 4493.33322345701340000000, 4878.97423966788660000000, 4412.30758441270700000000, 4178.46143628483700000000, 4382.56399539644280000000, 4204.61528179913880000000, 460.00000000000000000000, 4.00000000000000000000, 4.00000000000000000000, 4.00000000000000000000, 4.00000000000000000000, 4.00000000000000000000, 2.00000000000000000000, 0.00000000000000000000, 0.00000000000000000000, 4.00000000000000000000, 4.00000000000000000000, 4.00000000000000000000, 4.00000000000000000000, 4.00000000000000000000, 4.00000000000000000000, 4.00000000000000000000, 4.00000000000000000000, 1668.00000000000000000000, 1683.00000000000000000000, 0.00000000000000000000
104.00000000000000000000, 0.00000000000000000000, 4019.99990169818830000000, 4709.23065407506870000000, 4257.94861382830190000000, 4639.99988653721270000000, 4231.79476831400010000000, 4556.41014499150420000000, 4275.89733133811660000000, 4295.89733084905220000000, 4483.07681345140460000000, 4877.94859866732530000000, 4418.97425091635250000000, 4182.56400028708050000000, 4384.61527739756460000000, 4205.64092279969920000000, 490.00000000000000000000, 4.00000000000000000000, 4.00000000000000000000, 4.00000000000000000000, 4.00000000000000000000, 4.00000000000000000000, 2.00000000000000000000, 0.00000000000000000000, 0.00000000000000000000, 4.00000000000000000000, 4.00000000000000000000, 4.00000000000000000000, 4.00000000000000000000, 4.00000000000000000000, 4.00000000000000000000, 4.00000000000000000000, 4.00000000000000000000, 1668.00000000000000000000, 1684.00000000000000000000, 0.00000000000000000000
105.00000000000000000000, 0.00000000000000000000, 4022.56400419959030000000, 4709.23065407506870000000, 4257.43579332802160000000, 4636.92296353552960000000, 4231.28194781371990000000, 4554.35886299038250000000, 4276.41015183839680000000, 4297.43579234989370000000, 4478.97424944916110000000, 4876.41013716648470000000, 4409.23066141102480000000, 4185.12810278848250000000, 4389.23066190008830000000, 4212.82040980362490000000, 454.00000000000000000000, 4.00000000000000000000, 4.00000000000000000000, 4.00000000000000000000, 4.00000000000000000000, 4.00000000000000000000, 2.00000000000000000000, 0.00000000000000000000, 0.00000000000000000000, 4.00000000000000000000, 4.00000000000000000000, 4.00000000000000000000, 4.00000000000000000000, 4.00000000000000000000, 4.00000000000000000000, 4.00000000000000000000, 4.00000000000000000000, 1669.00000000000000000000, 1684.00000000000000000000, 0.00000000000000000000
106.00000000000000000000, 0.00000000000000000000, 4028.71785020295560000000, 4715.38450007843400000000, 4256.92297282774050000000, 4641.02552753777310000000, 4230.76912731343960000000, 4552.30758098926070000000, 4274.87169033755530000000, 4297.94861285017400000000, 4483.58963395168480000000, 4874.35885516536290000000, 4410.76912291186640000000, 4186.66656428932400000000, 4388.20502089952790000000, 4217.94861480642880000000, 501.00000000000000000000, 4.00000000000000000000, 4.00000000000000000000, 4.00000000000000000000, 4.00000000000000000000, 4.00000000000000000000, 2.00000000000000000000, 0.00000000000000000000, 0.00000000000000000000, 4.00000000000000000000, 4.00000000000000000000, 4.00000000000000000000, 4.00000000000000000000, 4.00000000000000000000, 4.00000000000000000000, 4.00000000000000000000, 4.00000000000000000000, 1668.00000000000000000000, 1685.00000000000000000000, 0.00000000000000000000
107.00000000000000000000, 0.00000000000000000000, 4032.30759370491840000000, 4719.99988458095780000000, 4257.94861382830190000000, 4645.12809154001660000000, 4232.30758881428120000000, 4550.76911948842010000000, 4275.38451083783550000000, 4297.43579234989370000000, 4485.64091595280660000000, 4870.25629116311940000000, 4424.61527641943760000000, 4185.64092328876270000000, 4383.07681589672300000000, 4216.41015330558820000000, 460.00000000000000000000, 4.00000000000000000000, 4.00000000000000000000, 4.00000000000000000000, 4.00000000000000000000, 4.00000000000000000000, 2.00000000000000000000, 0.00000000000000000000, 0.00000000000000000000, 4.00000000000000000000, 4.00000000000000000000, 4.00000000000000000000, 4.00000000000000000000, 4.00000000000000000000, 4.00000000000000000000, 4.00000000000000000000, 4.00000000000000000000, 1669.00000000000000000000, 1684.00000000000000000000, 0.00000000000000000000
108.00000000000000000000, 0.00000000000000000000, 4034.87169620632040000000, 4722.05116658207860000000, 4257.94861382830190000000, 4646.15373254057700000000, 4232.82040931456140000000, 4552.30758098926070000000, 4277.43579283895720000000, 4297.43579234989370000000, 4488.20501845420860000000, 4875.38449616592330000000, 4428.20501992140000000000, 4185.12810278848250000000, 4388.20502089952790000000, 4217.94861480642880000000, 490.00000000000000000000, 4.00000000000000000000, 4.00000000000000000000, 4.00000000000000000000, 4.00000000000000000000, 4.00000000000000000000, 2.00000000000000000000, 0.00000000000000000000, 0.00000000000000000000, 4.00000000000000000000, 4.00000000000000000000, 4.00000000000000000000, 4.00000000000000000000, 4.00000000000000000000, 4.00000000000000000000, 4.00000000000000000000, 4.00000000000000000000, 1668.00000000000000000000, 1684.00000000000000000000, 0.00000000000000000000
109.00000000000000000000, 0.00000000000000000000, 4036.92297820744220000000, 4725.64091008404190000000, 4256.92297282774050000000, 4648.20501454169880000000, 4237.43579381708510000000, 4555.38450399094380000000, 4276.92297233867700000000, 4296.92297184961350000000, 4490.25630045533030000000, 4883.58962417041040000000, 4426.15373792027820000000, 4186.66656428932400000000, 4397.43578990457540000000, 4221.02553780811190000000, 454.00000000000000000000, 4.00000000000000000000, 4.00000000000000000000, 4.00000000000000000000, 4.00000000000000000000, 4.00000000000000000000, 2.00000000000000000000, 0.00000000000000000000, 0.00000000000000000000, 4.00000000000000000000, 4.00000000000000000000, 4.00000000000000000000, 4.00000000000000000000, 4.00000000000000000000, 4.00000000000000000000, 4.00000000000000000000, 4.00000000000000000000, 1668.00000000000000000000, 1685.00000000000000000000, 0.00000000000000000000
110.00000000000000000000, 0.00000000000000000000, 4034.35887570603970000000, 4724.61526908348150000000, 4253.84604982605830000000, 4648.71783504197900000000, 4239.99989631848710000000, 4555.89732449122400000000, 4275.89733133811660000000, 4296.92297184961350000000, 4489.23065945476990000000, 4883.07680367013020000000, 4424.61527641943760000000, 4186.15374378904290000000, 4394.35886690289230000000, 4217.94861480642880000000, 501.00000000000000000000, 4.00000000000000000000, 4.00000000000000000000, 4.00000000000000000000, 4.00000000000000000000, 4.00000000000000000000, 2.00000000000000000000, 0.00000000000000000000, 0.00000000000000000000, 4.00000000000000000000, 4.00000000000000000000, 4.00000000000000000000, 4.00000000000000000000, 4.00000000000000000000, 4.00000000000000000000, 4.00000000000000000000, 4.00000000000000000000, 1669.00000000000000000000, 1683.00000000000000000000, 0.00000000000000000000
111.00000000000000000000, 0.00000000000000000000, 4031.28195270435750000000, 4719.99988458095780000000, 4249.23066532353460000000, 4646.66655304085820000000, 4235.89733231624360000000, 4550.25629898813900000000, 4274.35886983727510000000, 4297.94861285017400000000, 4487.17937745364820000000, 4876.41013716648470000000, 4418.97425091635250000000, 4181.53835928651920000000, 4388.20502089952790000000, 4214.87169180474670000000, 460.00000000000000000000, 4.00000000000000000000, 4.00000000000000000000, 4.00000000000000000000, 4.00000000000000000000, 4.00000000000000000000, 2.00000000000000000000, 0.00000000000000000000, 0.00000000000000000000, 4.00000000000000000000, 4.00000000000000000000, 4.00000000000000000000, 4.00000000000000000000, 4.00000000000000000000, 4.00000000000000000000, 4.00000000000000000000, 4.00000000000000000000, 1668.00000000000000000000, 1684.00000000000000000000, 0.00000000000000000000
112.00000000000000000000, 0.00000000000000000000, 4028.71785020295560000000, 4718.97424358039640000000, 4242.05117831960890000000, 4644.10245053945530000000, 4233.33322981484160000000, 4545.12809398533500000000, 4275.38451083783550000000, 4299.99989485129570000000, 4478.97424944916110000000, 4868.71782966227780000000, 4411.79476391242680000000, 4172.30759028147170000000, 4384.61527739756460000000, 4213.33323030390510000000, 490.00000000000000000000, 4.00000000000000000000, 4.00000000000000000000, 4.00000000000000000000, 4.00000000000000000000, 4.00000000000000000000, 2.00000000000000000000, 0.00000000000000000000, 0.00000000000000000000, 4.00000000000000000000, 4.00000000000000000000, 4.00000000000000000000, 4.00000000000000000000, 4.00000000000000000000, 4.00000000000000000000, 4.00000000000000000000, 4.00000000000000000000, 1669.00000000000000000000, 1683.00000000000000000000, 0.00000000000000000000
113.00000000000000000000, 0.00000000000000000000, 4027.69220920239470000000, 4718.97424358039640000000, 4236.92297331680490000000, 4645.64091204029680000000, 4234.87169131568320000000, 4542.56399148393300000000, 4277.43579283895720000000, 4299.99989485129570000000, 4469.23065994383340000000, 4867.17936816143720000000, 4410.76912291186640000000, 4168.20502627922910000000, 4382.56399539644280000000, 4214.35887130446640000000, 454.00000000000000000000, 4.00000000000000000000, 4.00000000000000000000, 4.00000000000000000000, 4.00000000000000000000, 4.00000000000000000000, 2.00000000000000000000, 0.00000000000000000000, 0.00000000000000000000, 4.00000000000000000000, 4.00000000000000000000, 4.00000000000000000000, 4.00000000000000000000, 4.00000000000000000000, 4.00000000000000000000, 4.00000000000000000000, 4.00000000000000000000, 1668.00000000000000000000, 1683.00000000000000000000, 0.00000000000000000000
114.00000000000000000000, 0.00000000000000000000, 4031.28195270435750000000, 4718.46142308011620000000, 4240.51271681876730000000, 4648.71783504197900000000, 4235.89733231624360000000, 4543.58963248449440000000, 4275.89733133811660000000, 4296.92297184961350000000, 4472.82040344579670000000, 4873.33321416480160000000, 4415.89732791467030000000, 4178.46143628483700000000, 4391.79476440149030000000, 4216.92297380586840000000, 501.00000000000000000000, 4.00000000000000000000, 4.00000000000000000000, 4.00000000000000000000, 4.00000000000000000000, 4.00000000000000000000, 2.00000000000000000000, 0.00000000000000000000, 0.00000000000000000000, 4.00000000000000000000, 4.00000000000000000000, 4.00000000000000000000, 4.00000000000000000000, 4.00000000000000000000, 4.00000000000000000000, 4.00000000000000000000, 4.00000000000000000000, 1669.00000000000000000000, 1683.00000000000000000000, 0.00000000000000000000
115.00000000000000000000, 0.00000000000000000000, 4034.35887570603970000000, 4719.99988458095780000000, 4245.64092182157130000000, 4647.69219404141860000000, 4234.35887081540300000000, 4544.61527348505480000000, 4272.30758783615330000000, 4295.89733084905220000000, 4478.97424944916110000000, 4878.46141916760640000000, 4425.64091741999800000000, 4185.12810278848250000000, 4399.99989240597730000000, 4218.46143530671000000000, 460.00000000000000000000, 4.00000000000000000000, 4.00000000000000000000, 4.00000000000000000000, 4.00000000000000000000, 4.00000000000000000000, 2.00000000000000000000, 0.00000000000000000000, 0.00000000000000000000, 4.00000000000000000000, 4.00000000000000000000, 4.00000000000000000000, 4.00000000000000000000, 4.00000000000000000000, 4.00000000000000000000, 4.00000000000000000000, 4.00000000000000000000, 1668.00000000000000000000, 1684.00000000000000000000, 0.00000000000000000000
116.00000000000000000000, 0.00000000000000000000, 4033.84605520575950000000, 4721.02552558151820000000, 4244.10246032073060000000, 4644.61527103973640000000, 4235.38451181596340000000, 4545.12809398533500000000, 4273.84604933699480000000, 4297.94861285017400000000, 4481.02553145028290000000, 4879.99988066844710000000, 4425.64091741999800000000, 4181.53835928651920000000, 4396.41014890401400000000, 4217.94861480642880000000, 490.00000000000000000000, 4.00000000000000000000, 4.00000000000000000000, 4.00000000000000000000, 4.00000000000000000000, 4.00000000000000000000, 2.00000000000000000000, 0.00000000000000000000, 0.00000000000000000000, 4.00000000000000000000, 4.00000000000000000000, 4.00000000000000000000, 4.00000000000000000000, 4.00000000000000000000, 4.00000000000000000000, 4.00000000000000000000, 4.00000000000000000000, 1668.00000000000000000000, 1684.00000000000000000000, 0.00000000000000000000
117.00000000000000000000, 0.00000000000000000000, 4033.33323470547930000000, 4717.94860257983600000000, 4241.53835781932870000000, 4645.12809154001660000000, 4234.87169131568320000000, 4542.05117098365280000000, 4274.87169033755530000000, 4297.94861285017400000000, 4475.89732644747890000000, 4877.94859866732530000000, 4416.41014841495050000000, 4176.41015428371520000000, 4392.82040540205160000000, 4218.46143530671000000000, 454.00000000000000000000, 4.00000000000000000000, 4.00000000000000000000, 4.00000000000000000000, 4.00000000000000000000, 4.00000000000000000000, 2.00000000000000000000, 0.00000000000000000000, 0.00000000000000000000, 4.00000000000000000000, 4.00000000000000000000, 4.00000000000000000000, 4.00000000000000000000, 4.00000000000000000000, 4.00000000000000000000, 4.00000000000000000000, 4.00000000000000000000, 1668.00000000000000000000, 1685.00000000000000000000, 0.00000000000000000000
118.00000000000000000000, 0.00000000000000000000, 4033.33323470547930000000, 4718.46142308011620000000, 4242.05117831960890000000, 4645.12809154001660000000, 4233.33322981484160000000, 4542.05117098365280000000, 4271.79476733587310000000, 4296.41015134933330000000, 4472.30758294551560000000, 4874.35885516536290000000, 4413.33322541326830000000, 4176.92297478399540000000, 4393.33322590233180000000, 4218.46143530671000000000, 501.00000000000000000000, 4.00000000000000000000, 4.00000000000000000000, 4.00000000000000000000, 4.00000000000000000000, 4.00000000000000000000, 2.00000000000000000000, 0.00000000000000000000, 0.00000000000000000000, 4.00000000000000000000, 4.00000000000000000000, 4.00000000000000000000, 4.00000000000000000000, 4.00000000000000000000, 4.00000000000000000000, 4.00000000000000000000, 4.00000000000000000000, 1669.00000000000000000000, 1685.00000000000000000000, 0.00000000000000000000
119.00000000000000000000, 0.00000000000000000000, 4035.38451670660060000000, 4721.02552558151820000000, 4241.53835781932870000000, 4643.07680953889480000000, 4238.46143481764560000000, 4544.61527348505480000000, 4272.82040833643350000000, 4298.46143335045510000000, 4483.07681345140460000000, 4882.56398316985000000000, 4416.92296891523070000000, 4177.94861578455680000000, 4394.87168740317340000000, 4216.92297380586840000000, 460.00000000000000000000, 4.00000000000000000000, 4.00000000000000000000, 4.00000000000000000000, 4.00000000000000000000, 4.00000000000000000000, 2.00000000000000000000, 0.00000000000000000000, 0.00000000000000000000, 4.00000000000000000000, 4.00000000000000000000, 4.00000000000000000000, 4.00000000000000000000, 4.00000000000000000000, 4.00000000000000000000, 4.00000000000000000000, 4.00000000000000000000, 1668.00000000000000000000, 1685.00000000000000000000, 0.00000000000000000000
120.00000000000000000000, 0.00000000000000000000, 4036.41015770716150000000, 4718.97424358039640000000, 4243.07681932016930000000, 4642.56398903861460000000, 4241.53835781932870000000, 4546.66655548617650000000, 4276.41015183839680000000, 4299.99989485129570000000, 4489.74347995505010000000, 4891.79475217489740000000, 4425.12809691971780000000, 4176.92297478399540000000, 4397.43578990457540000000, 4219.99989680755060000000, 490.00000000000000000000, 4.00000000000000000000, 4.00000000000000000000, 4.00000000000000000000, 4.00000000000000000000, 4.00000000000000000000, 2.00000000000000000000, 0.00000000000000000000, 0.00000000000000000000, 4.00000000000000000000, 4.00000000000000000000, 4.00000000000000000000, 4.00000000000000000000, 4.00000000000000000000, 4.00000000000000000000, 4.00000000000000000000, 4.00000000000000000000, 1668.00000000000000000000, 1687.00000000000000000000, 0.00000000000000000000
121.00000000000000000000, 0.00000000000000000000, 4035.38451670660060000000, 4718.46142308011620000000, 4247.69220382269300000000, 4644.10245053945530000000, 4236.41015281652380000000, 4548.20501698701810000000, 4275.89733133811660000000, 4297.94861285017400000000, 4483.58963395168480000000, 4885.64090617153220000000, 4429.74348142224150000000, 4176.92297478399540000000, 4398.97425140541600000000, 4224.61528131007440000000, 454.00000000000000000000, 4.00000000000000000000, 4.00000000000000000000, 4.00000000000000000000, 4.00000000000000000000, 4.00000000000000000000, 2.00000000000000000000, 0.00000000000000000000, 0.00000000000000000000, 4.00000000000000000000, 4.00000000000000000000, 4.00000000000000000000, 4.00000000000000000000, 4.00000000000000000000, 4.00000000000000000000, 4.00000000000000000000, 4.00000000000000000000, 1669.00000000000000000000, 1686.00000000000000000000, 0.00000000000000000000
122.00000000000000000000, 0.00000000000000000000, 4035.89733720688130000000, 4724.10244858320040000000, 4249.74348582381480000000, 4647.69219404141860000000, 4232.30758881428120000000, 4550.25629898813900000000, 4275.38451083783550000000, 4295.89733084905220000000, 4485.64091595280660000000, 4886.66654717209260000000, 4419.99989191691380000000, 4182.56400028708050000000, 4397.43578990457540000000, 4226.15374281091590000000, 501.00000000000000000000, 4.00000000000000000000, 4.00000000000000000000, 4.00000000000000000000, 4.00000000000000000000, 4.00000000000000000000, 2.00000000000000000000, 0.00000000000000000000, 0.00000000000000000000, 4.00000000000000000000, 4.00000000000000000000, 4.00000000000000000000, 4.00000000000000000000, 4.00000000000000000000, 4.00000000000000000000, 4.00000000000000000000, 4.00000000000000000000, 1668.00000000000000000000, 1688.00000000000000000000, 0.00000000000000000000
123.00000000000000000000, 0.00000000000000000000, 4035.38451670660060000000, 4723.07680758264000000000, 4246.66656282213260000000, 4646.66655304085820000000, 4234.35887081540300000000, 4550.25629898813900000000, 4277.94861333923840000000, 4295.38451034877200000000, 4493.84604395729370000000, 4892.82039317545790000000, 4415.38450741439010000000, 4185.12810278848250000000, 4393.84604640261200000000, 4223.07681980923370000000, 460.00000000000000000000, 4.00000000000000000000, 4.00000000000000000000, 4.00000000000000000000, 4.00000000000000000000, 4.00000000000000000000, 2.00000000000000000000, 0.00000000000000000000, 0.00000000000000000000, 4.00000000000000000000, 4.00000000000000000000, 4.00000000000000000000, 4.00000000000000000000, 4.00000000000000000000, 4.00000000000000000000, 4.00000000000000000000, 4.00000000000000000000, 1668.00000000000000000000, 1687.00000000000000000000, 0.00000000000000000000
124.00000000000000000000, 0.00000000000000000000, 4029.74349120351600000000, 4715.89732057871420000000, 4245.12810132129110000000, 4639.99988653721270000000, 4239.99989631848710000000, 4547.17937598645680000000, 4277.94861333923840000000, 4296.41015134933330000000, 4483.58963395168480000000, 4881.02552166900840000000, 4425.64091741999800000000, 4176.92297478399540000000, 4392.82040540205160000000, 4221.02553780811190000000, 490.00000000000000000000, 4.00000000000000000000, 4.00000000000000000000, 4.00000000000000000000, 4.00000000000000000000, 4.00000000000000000000, 2.00000000000000000000, 0.00000000000000000000, 0.00000000000000000000, 4.00000000000000000000, 4.00000000000000000000, 4.00000000000000000000, 4.00000000000000000000, 4.00000000000000000000, 4.00000000000000000000, 4.00000000000000000000, 4.00000000000000000000, 1667.00000000000000000000, 1688.00000000000000000000, 0.00000000000000000000
125.00000000000000000000, 0.00000000000000000000, 4029.74349120351600000000, 4717.43578207955490000000, 4247.17938332241280000000, 4641.53834803805330000000, 4247.17938332241280000000, 4550.76911948842010000000, 4276.92297233867700000000, 4297.43579234989370000000, 4472.82040344579670000000, 4869.23065016255900000000, 4430.76912242280200000000, 4174.87169278287460000000, 4395.89732840373380000000, 4225.64092231063570000000, 454.00000000000000000000, 4.00000000000000000000, 4.00000000000000000000, 4.00000000000000000000, 4.00000000000000000000, 4.00000000000000000000, 2.00000000000000000000, 0.00000000000000000000, 0.00000000000000000000, 4.00000000000000000000, 4.00000000000000000000, 4.00000000000000000000, 4.00000000000000000000, 4.00000000000000000000, 4.00000000000000000000, 4.00000000000000000000, 4.00000000000000000000, 1668.00000000000000000000, 1687.00000000000000000000, 0.00000000000000000000
126.00000000000000000000, 0.00000000000000000000, 4034.87169620632040000000, 4725.12808958376170000000, 4249.23066532353460000000, 4649.23065554226010000000, 4247.17938332241280000000, 4553.33322198982210000000, 4278.97425433979880000000, 4298.46143335045510000000, 4483.07681345140460000000, 4881.02552166900840000000, 4427.69219942111980000000, 4186.15374378904290000000, 4402.56399490737930000000, 4226.66656331119610000000, 501.00000000000000000000, 4.00000000000000000000, 4.00000000000000000000, 4.00000000000000000000, 4.00000000000000000000, 4.00000000000000000000, 2.00000000000000000000, 0.00000000000000000000, 0.00000000000000000000, 4.00000000000000000000, 4.00000000000000000000, 4.00000000000000000000, 4.00000000000000000000, 4.00000000000000000000, 4.00000000000000000000, 4.00000000000000000000, 4.00000000000000000000, 1667.00000000000000000000, 1686.00000000000000000000, 0.00000000000000000000
127.00000000000000000000, 0.00000000000000000000, 4032.82041420519860000000, 4724.10244858320040000000, 4247.69220382269300000000, 4647.17937354113840000000, 4246.15374232185240000000, 4551.28193998870030000000, 4277.43579283895720000000, 4298.46143335045510000000, 4493.84604395729370000000, 4889.74347017377570000000, 4424.10245591915650000000, 4186.66656428932400000000, 4404.10245640822090000000, 4218.97425580699020000000, 460.00000000000000000000, 4.00000000000000000000, 4.00000000000000000000, 4.00000000000000000000, 4.00000000000000000000, 4.00000000000000000000, 2.00000000000000000000, 0.00000000000000000000, 0.00000000000000000000, 4.00000000000000000000, 4.00000000000000000000, 4.00000000000000000000, 4.00000000000000000000, 4.00000000000000000000, 4.00000000000000000000, 4.00000000000000000000, 4.00000000000000000000, 1668.00000000000000000000, 1687.00000000000000000000, 0.00000000000000000000
128.00000000000000000000, 0.00000000000000000000, 4024.61528620071200000000, 4717.43578207955490000000, 4243.07681932016930000000, 4640.51270703749290000000, 4247.17938332241280000000, 4551.79476048898050000000, 4275.38451083783550000000, 4296.92297184961350000000, 4486.15373645308680000000, 4877.94859866732530000000, 4417.43578941551100000000, 4173.33323128203300000000, 4394.35886690289230000000, 4214.35887130446640000000, 490.00000000000000000000, 4.00000000000000000000, 4.00000000000000000000, 4.00000000000000000000, 4.00000000000000000000, 4.00000000000000000000, 2.00000000000000000000, 0.00000000000000000000, 0.00000000000000000000, 4.00000000000000000000, 4.00000000000000000000, 4.00000000000000000000, 4.00000000000000000000, 4.00000000000000000000, 4.00000000000000000000, 4.00000000000000000000, 4.00000000000000000000, 1667.00000000000000000000, 1686.00000000000000000000, 0.00000000000000000000
0.00000000000000000000, 0.00000000000000000000, 4023.07682469987090000000, 4715.38450007843400000000, 4242.56399881988910000000, 4639.99988653721270000000, 4240.51271681876730000000, 4553.84604249010230000000, 4277.94861333923840000000, 4295.38451034877200000000, 4474.35886494663740000000, 4870.25629116311940000000, 4415.89732791467030000000, 4172.30759028147170000000, 4389.74348240036850000000, 4217.43579430614860000000, 402.00000000000000000000, 4.00000000000000000000, 4.00000000000000000000, 4.00000000000000000000, 4.00000000000000000000, 4.00000000000000000000, 2.00000000000000000000, 0.00000000000000000000, 0.00000000000000000000, 4.00000000000000000000, 4.00000000000000000000, 4.00000000000000000000, 4.00000000000000000000, 4.00000000000000000000, 4.00000000000000000000, 4.00000000000000000000, 4.00000000000000000000, 1668.00000000000000000000, 1687.00000000000000000000, 0.00000000000000000000
1.00000000000000000000, 0.00000000000000000000, 4030.25631170379670000000, 4717.43578207955490000000, 4246.66656282213260000000, 4639.48706603693150000000, 4237.43579381708510000000, 4555.38450399094380000000, 4276.92297233867700000000, 4295.89733084905220000000, 4478.46142894888090000000, 4880.51270116872820000000, 4425.12809691971780000000, 4183.58964128764090000000, 4401.53835390681890000000, 4220.51271730783080000000, 453.00000000000000000000, 4.00000000000000000000, 4.00000000000000000000, 4.00000000000000000000, 4.00000000000000000000, 4.00000000000000000000, 2.00000000000000000000, 0.00000000000000000000, 0.00000000000000000000, 4.00000000000000000000, 4.00000000000000000000, 4.00000000000000000000, 4.00000000000000000000, 4.00000000000000000000, 4.00000000000000000000, 4.00000000000000000000, 4.00000000000000000000, 1666.00000000000000000000, 1686.00000000000000000000, 0.00000000000000000000
2.00000000000000000000, 0.00000000000000000000, 4036.41015770716150000000, 4718.97424358039640000000, 4252.30758832521680000000, 4641.02552753777310000000, 4247.17938332241280000000, 4554.35886299038250000000, 4273.84604933699480000000, 4297.43579234989370000000, 4489.23065945476990000000, 4891.28193167461630000000, 4430.76912242280200000000, 4184.61528228820230000000, 4408.71784091074460000000, 4225.64092231063570000000, 511.00000000000000000000, 4.00000000000000000000, 4.00000000000000000000, 4.00000000000000000000, 4.00000000000000000000, 4.00000000000000000000, 2.00000000000000000000, 0.00000000000000000000, 0.00000000000000000000, 4.00000000000000000000, 4.00000000000000000000, 4.00000000000000000000, 4.00000000000000000000, 4.00000000000000000000, 4.00000000000000000000, 4.00000000000000000000, 4.00000000000000000000, 1667.00000000000000000000, 1685.00000000000000000000, 0.00000000000000000000
3.00000000000000000000, 0.00000000000000000000, 4036.92297820744220000000, 4723.07680758264000000000, 4254.87169082661880000000, 4648.20501454169880000000, 4249.23066532353460000000, 4551.28193998870030000000, 4274.87169033755530000000, 4298.46143335045510000000, 4489.74347995505010000000, 4889.74347017377570000000, 4427.17937892083960000000, 4181.53835928651920000000, 4403.07681540765950000000, 4229.23066581259810000000, 527.00000000000000000000, 4.00000000000000000000, 4.00000000000000000000, 4.00000000000000000000, 4.00000000000000000000, 4.00000000000000000000, 2.00000000000000000000, 0.00000000000000000000, 0.00000000000000000000, 4.00000000000000000000, 4.00000000000000000000, 4.00000000000000000000, 4.00000000000000000000, 4.00000000000000000000, 4.00000000000000000000, 4.00000000000000000000, 4.00000000000000000000, 1666.00000000000000000000, 1686.00000000000000000000, 0.00000000000000000000
4.00000000000000000000, 0.00000000000000000000, 4038.46143970828330000000, 4726.66655108460240000000, 4252.82040882549790000000, 4651.79475804366210000000, 4242.05117831960890000000, 4548.20501698701810000000, 4279.48707484007900000000, 4297.43579234989370000000, 4486.66655695336790000000, 4888.71782917321430000000, 4428.20501992140000000000, 4185.12810278848250000000, 4403.58963590793970000000, 4226.15374281091590000000, 481.00000000000000000000, 4.00000000000000000000, 4.00000000000000000000, 4.00000000000000000000, 4.00000000000000000000, 4.00000000000000000000, 2.00000000000000000000, 0.00000000000000000000, 0.00000000000000000000, 4.00000000000000000000, 4.00000000000000000000, 4.00000000000000000000, 4.00000000000000000000, 4.00000000000000000000, 4.00000000000000000000, 4.00000000000000000000, 4.00000000000000000000, 1666.00000000000000000000, 1686.00000000000000000000, 0.00000000000000000000
5.00000000000000000000, 0.00000000000000000000, 4039.99990120912430000000, 4726.66655108460240000000, 4252.30758832521680000000, 4648.20501454169880000000, 4243.07681932016930000000, 4547.69219648673700000000, 4278.97425433979880000000, 4296.92297184961350000000, 4487.17937745364820000000, 4891.28193167461630000000, 4429.74348142224150000000, 4185.64092328876270000000, 4407.17937940990300000000, 4225.12810181035550000000, 280.00000000000000000000, 4.00000000000000000000, 4.00000000000000000000, 4.00000000000000000000, 4.00000000000000000000, 4.00000000000000000000, 2.00000000000000000000, 0.00000000000000000000, 0.00000000000000000000, 4.00000000000000000000, 4.00000000000000000000, 4.00000000000000000000, 4.00000000000000000000, 4.00000000000000000000, 4.00000000000000000000, 4.00000000000000000000, 4.00000000000000000000, 1666.00000000000000000000, 1686.00000000000000000000, 0.00000000000000000000
6.00000000000000000000, 0.00000000000000000000, 4036.92297820744220000000, 4724.10244858320040000000, 4255.89733182718010000000, 4647.69219404141860000000, 4247.69220382269300000000, 4549.23065798757850000000, 4276.92297233867700000000, 4299.48707435101550000000, 4485.64091595280660000000, 4889.23064967349460000000, 4426.66655842055840000000, 4184.10246178792200000000, 4405.64091790906150000000, 4228.20502481203770000000, 0.00000000000000000000, 4.00000000000000000000, 4.00000000000000000000, 4.00000000000000000000, 4.00000000000000000000, 4.00000000000000000000, 2.00000000000000000000, 0.00000000000000000000, 0.00000000000000000000, 4.00000000000000000000, 4.00000000000000000000, 4.00000000000000000000, 4.00000000000000000000, 4.00000000000000000000, 4.00000000000000000000, 4.00000000000000000000, 4.00000000000000000000, 1667.00000000000000000000, 1686.00000000000000000000, 0.00000000000000000000
7.00000000000000000000, 0.00000000000000000000, 4037.94861920800300000000, 4723.58962808292020000000, 4258.46143432858210000000, 4649.74347604254040000000, 4247.69220382269300000000, 4549.74347848785870000000, 4277.43579283895720000000, 4297.94861285017400000000, 4479.48706994944220000000, 4879.48706016816690000000, 4426.15373792027820000000, 4185.64092328876270000000, 4404.10245640822090000000, 4229.74348631287920000000, 0.00000000000000000000, 4.00000000000000000000, 4.00000000000000000000, 4.00000000000000000000, 4.00000000000000000000, 4.00000000000000000000, 2.00000000000000000000, 0.00000000000000000000, 0.00000000000000000000, 4.00000000000000000000, 4.00000000000000000000, 4.00000000000000000000, 4.00000000000000000000, 4.00000000000000000000, 4.00000000000000000000, 4.00000000000000000000, 4.00000000000000000000, 1665.00000000000000000000, 1686.00000000000000000000, 0.00000000000000000000
8.00000000000000000000, 0.00000000000000000000, 4038.46143970828330000000, 4723.58962808292020000000, 4252.82040882549790000000, 4647.69219404141860000000, 4246.66656282213260000000, 4548.71783748729830000000, 4276.41015183839680000000, 4294.87168984849180000000, 4474.87168544691850000000, 4865.64090666059560000000, 4427.17937892083960000000, 4181.02553878623890000000, 4399.99989240597730000000, 4224.10246080979410000000, 323.00000000000000000000, 4.00000000000000000000, 4.00000000000000000000, 4.00000000000000000000, 4.00000000000000000000, 4.00000000000000000000, 2.00000000000000000000, 0.00000000000000000000, 0.00000000000000000000, 4.00000000000000000000, 4.00000000000000000000, 4.00000000000000000000, 4.00000000000000000000, 4.00000000000000000000, 4.00000000000000000000, 4.00000000000000000000, 4.00000000000000000000, 1667.00000000000000000000, 1686.00000000000000000000, 0.00000000000000000000
9.00000000000000000000, 0.00000000000000000000, 4028.20502970267490000000, 4720.51270508123800000000, 4246.15374232185240000000, 4645.64091204029680000000, 4250.25630632409500000000, 4552.82040148954180000000, 4274.87169033755530000000, 4295.89733084905220000000, 4477.94860844860070000000, 4864.61526566003520000000, 4419.99989191691380000000, 4172.30759028147170000000, 4391.79476440149030000000, 4215.38451230502690000000, 442.00000000000000000000, 4.00000000000000000000, 4.00000000000000000000, 4.00000000000000000000, 4.00000000000000000000, 4.00000000000000000000, 2.00000000000000000000, 0.00000000000000000000, 0.00000000000000000000, 4.00000000000000000000, 4.00000000000000000000, 4.00000000000000000000, 4.00000000000000000000, 4.00000000000000000000, 4.00000000000000000000, 4.00000000000000000000, 4.00000000000000000000, 1667.00000000000000000000, 1685.00000000000000000000, 0.00000000000000000000
10.00000000000000000000, 0.00000000000000000000, 4023.07682469987090000000, 4716.41014107899450000000, 4246.15374232185240000000, 4646.15373254057700000000, 4253.84604982605830000000, 4558.46142699262600000000, 4275.89733133811660000000, 4297.94861285017400000000, 4485.64091595280660000000, 4875.38449616592330000000, 4406.66655890962280000000, 4173.84605178231320000000, 4391.79476440149030000000, 4214.87169180474670000000, 501.00000000000000000000, 4.00000000000000000000, 4.00000000000000000000, 4.00000000000000000000, 4.00000000000000000000, 4.00000000000000000000, 2.00000000000000000000, 0.00000000000000000000, 0.00000000000000000000, 4.00000000000000000000, 4.00000000000000000000, 4.00000000000000000000, 4.00000000000000000000, 4.00000000000000000000, 4.00000000000000000000, 4.00000000000000000000, 4.00000000000000000000, 1665.00000000000000000000, 1686.00000000000000000000, 0.00000000000000000000
11.00000000000000000000, 0.00000000000000000000, 4031.79477320463770000000, 4718.97424358039640000000, 4250.76912682437610000000, 4648.20501454169880000000, 4252.30758832521680000000, 4555.38450399094380000000, 4277.94861333923840000000, 4296.92297184961350000000, 4493.33322345701340000000, 4885.64090617153220000000, 4409.74348191130500000000, 4179.48707728539830000000, 4398.97425140541600000000, 4218.46143530671000000000, 460.00000000000000000000, 4.00000000000000000000, 4.00000000000000000000, 4.00000000000000000000, 4.00000000000000000000, 4.00000000000000000000, 2.00000000000000000000, 0.00000000000000000000, 0.00000000000000000000, 4.00000000000000000000, 4.00000000000000000000, 4.00000000000000000000, 4.00000000000000000000, 4.00000000000000000000, 4.00000000000000000000, 4.00000000000000000000, 4.00000000000000000000, 1666.00000000000000000000, 1684.00000000000000000000, 0.00000000000000000000
12.00000000000000000000, 0.00000000000000000000, 4035.89733720688130000000, 4724.61526908348150000000, 4253.33322932577810000000, 4650.25629654282060000000, 4254.35887032633850000000, 4549.23065798757850000000, 4275.89733133811660000000, 4296.41015134933330000000, 4491.79476195617190000000, 4888.71782917321430000000, 4427.17937892083960000000, 4178.46143628483700000000, 4406.66655890962280000000, 4222.56399930895260000000, 490.00000000000000000000, 4.00000000000000000000, 4.00000000000000000000, 4.00000000000000000000, 4.00000000000000000000, 4.00000000000000000000, 2.00000000000000000000, 0.00000000000000000000, 0.00000000000000000000, 4.00000000000000000000, 4.00000000000000000000, 4.00000000000000000000, 4.00000000000000000000, 4.00000000000000000000, 4.00000000000000000000, 4.00000000000000000000, 4.00000000000000000000, 1666.00000000000000000000, 1687.00000000000000000000, 0.00000000000000000000
13.00000000000000000000, 0.00000000000000000000, 4032.30759370491840000000, 4723.07680758264000000000, 4251.28194732465640000000, 4649.74347604254040000000, 4255.89733182718010000000, 4552.82040148954180000000, 4276.41015183839680000000, 4297.94861285017400000000, 4479.99989044972240000000, 4886.15372667181240000000, 4432.82040442392370000000, 4175.38451328315480000000, 4407.17937940990300000000, 4225.12810181035550000000, 454.00000000000000000000, 4.00000000000000000000, 4.00000000000000000000, 4.00000000000000000000, 4.00000000000000000000, 4.00000000000000000000, 2.00000000000000000000, 0.00000000000000000000, 0.00000000000000000000, 4.00000000000000000000, 4.00000000000000000000, 4.00000000000000000000, 4.00000000000000000000, 4.00000000000000000000, 4.00000000000000000000, 4.00000000000000000000, 4.00000000000000000000, 1667.00000000000000000000, 1686.00000000000000000000, 0.00000000000000000000
14.00000000000000000000, 0.00000000000000000000, 4032.82041420519860000000, 4719.99988458095780000000, 4250.25630632409500000000, 4648.71783504197900000000, 4249.23066532353460000000, 4555.38450399094380000000, 4277.43579283895720000000, 4297.43579234989370000000, 4477.94860844860070000000, 4884.10244467069060000000, 4425.12809691971780000000, 4181.53835928651920000000, 4406.15373840934260000000, 4225.64092231063570000000, 501.00000000000000000000, 4.00000000000000000000, 4.00000000000000000000, 4.00000000000000000000, 4.00000000000000000000, 4.00000000000000000000, 2.00000000000000000000, 0.00000000000000000000, 0.00000000000000000000, 4.00000000000000000000, 4.00000000000000000000, 4.00000000000000000000, 4.00000000000000000000, 4.00000000000000000000, 4.00000000000000000000, 4.00000000000000000000, 4.00000000000000000000, 1667.00000000000000000000, 1686.00000000000000000000, 0.00000000000000000000
15.00000000000000000000, 0.00000000000000000000, 4039.48708070884410000000, 4725.12808958376170000000, 4253.33322932577810000000, 4650.25629654282060000000, 4248.20502432297420000000, 4552.30758098926070000000, 4274.35886983727510000000, 4297.43579234989370000000, 4488.20501845420860000000, 4881.53834216928860000000, 4429.23066092196130000000, 4187.69220528988440000000, 4410.25630241158520000000, 4228.71784531231790000000, 460.00000000000000000000, 4.00000000000000000000, 4.00000000000000000000, 4.00000000000000000000, 4.00000000000000000000, 4.00000000000000000000, 2.00000000000000000000, 0.00000000000000000000, 0.00000000000000000000, 4.00000000000000000000, 4.00000000000000000000, 4.00000000000000000000, 4.00000000000000000000, 4.00000000000000000000, 4.00000000000000000000, 4.00000000000000000000, 4.00000000000000000000, 1666.00000000000000000000, 1686.00000000000000000000, 0.00000000000000000000
16.00000000000000000000, 0.00000000000000000000, 4037.43579870772240000000, 4727.17937158488350000000, 4250.76912682437610000000, 4651.28193754338190000000, 4256.92297282774050000000, 4552.82040148954180000000, 4272.82040833643350000000, 4297.43579234989370000000, 4489.74347995505010000000, 4881.02552166900840000000, 4433.84604542448510000000, 4178.46143628483700000000, 4407.69219991018330000000, 4227.69220431175750000000, 0.00000000000000000000, 4.00000000000000000000, 4.00000000000000000000, 4.00000000000000000000, 4.00000000000000000000, 4.00000000000000000000, 2.00000000000000000000, 0.00000000000000000000, 0.00000000000000000000, 4.00000000000000000000, 4.00000000000000000000, 4.00000000000000000000, 4.00000000000000000000, 4.00000000000000000000, 4.00000000000000000000, 4.00000000000000000000, 4.00000000000000000000, 1666.00000000000000000000, 1686.00000000000000000000, 0.00000000000000000000
17.00000000000000000000, 0.00000000000000000000, 4031.28195270435750000000, 4722.56398708235970000000, 4247.17938332241280000000, 4647.17937354113840000000, 4258.46143432858210000000, 4552.82040148954180000000, 4275.89733133811660000000, 4296.92297184961350000000, 4483.07681345140460000000, 4882.05116266956880000000, 4419.48707141663270000000, 4170.76912878063100000000, 4397.43578990457540000000, 4218.97425580699020000000, 0.00000000000000000000, 4.00000000000000000000, 4.00000000000000000000, 4.00000000000000000000, 4.00000000000000000000, 4.00000000000000000000, 2.00000000000000000000, 0.00000000000000000000, 0.00000000000000000000, 4.00000000000000000000, 4.00000000000000000000, 4.00000000000000000000, 4.00000000000000000000, 4.00000000000000000000, 4.00000000000000000000, 4.00000000000000000000, 4.00000000000000000000, 1667.00000000000000000000, 1684.00000000000000000000, 0.00000000000000000000
18.00000000000000000000, 0.00000000000000000000, 4031.79477320463770000000, 4722.56398708235970000000, 4249.74348582381480000000, 4646.15373254057700000000, 4256.92297282774050000000, 4553.33322198982210000000, 4277.43579283895720000000, 4297.43579234989370000000, 4483.58963395168480000000, 4888.20500867293410000000, 4414.87168691410900000000, 4177.94861578455680000000, 4400.51271290625750000000, 4221.02553780811190000000, 0.00000000000000000000, 4.00000000000000000000, 4.00000000000000000000, 4.00000000000000000000, 4.00000000000000000000, 4.00000000000000000000, 2.00000000000000000000, 0.00000000000000000000, 0.00000000000000000000, 4.00000000000000000000, 4.00000000000000000000, 4.00000000000000000000, 4.00000000000000000000, 4.00000000000000000000, 4.00000000000000000000, 4.00000000000000000000, 4.00000000000000000000, 1667.00000000000000000000, 1685.00000000000000000000, 0.00000000000000000000
19.00000000000000000000, 0.00000000000000000000, 4037.43579870772240000000, 4724.61526908348150000000, 4253.84604982605830000000, 4651.28193754338190000000, 4259.48707532914250000000, 4553.33322198982210000000, 4276.92297233867700000000, 4296.92297184961350000000, 4489.74347995505010000000, 4886.15372667181240000000, 4425.12809691971780000000, 4183.07682078736070000000, 4406.66655890962280000000, 4232.30758881428120000000, 0.00000000000000000000, 4.00000000000000000000, 4.00000000000000000000, 4.00000000000000000000, 4.00000000000000000000, 4.00000000000000000000, 2.00000000000000000000, 0.00000000000000000000, 0.00000000000000000000, 4.00000000000000000000, 4.00000000000000000000, 4.00000000000000000000, 4.00000000000000000000, 4.00000000000000000000, 4.00000000000000000000, 4.00000000000000000000, 4.00000000000000000000, 1667.00000000000000000000, 1686.00000000000000000000, 0.00000000000000000000
20.00000000000000000000, 0.00000000000000000000, 4037.43579870772240000000, 4722.56398708235970000000, 4252.30758832521680000000, 4652.82039904422250000000, 4260.51271632970380000000, 4553.33322198982210000000, 4275.89733133811660000000, 4295.89733084905220000000, 4490.25630045533030000000, 4876.92295766676490000000, 4426.66655842055840000000, 4181.02553878623890000000, 4403.07681540765950000000, 4230.76912731343960000000, 0.00000000000000000000, 4.00000000000000000000, 4.00000000000000000000, 4.00000000000000000000, 4.00000000000000000000, 4.00000000000000000000, 2.00000000000000000000, 0.00000000000000000000, 0.00000000000000000000, 4.00000000000000000000, 4.00000000000000000000, 4.00000000000000000000, 4.00000000000000000000, 4.00000000000000000000, 4.00000000000000000000, 4.00000000000000000000, 4.00000000000000000000, 1667.00000000000000000000, 1685.00000000000000000000, 0.00000000000000000000
21.00000000000000000000, 0.00000000000000000000, 4036.92297820744220000000, 4723.58962808292020000000, 4250.76912682437610000000, 4649.23065554226010000000, 4260.51271632970380000000, 4553.33322198982210000000, 4275.89733133811660000000, 4295.38451034877200000000, 4485.12809545252640000000, 4876.41013716648470000000, 4423.07681491859600000000, 4181.02553878623890000000, 4406.15373840934260000000, 4227.17938381147630000000, 0.00000000000000000000, 4.00000000000000000000, 4.00000000000000000000, 4.00000000000000000000, 4.00000000000000000000, 4.00000000000000000000, 2.00000000000000000000, 0.00000000000000000000, 0.00000000000000000000, 4.00000000000000000000, 4.00000000000000000000, 4.00000000000000000000, 4.00000000000000000000, 4.00000000000000000000, 4.00000000000000000000, 4.00000000000000000000, 4.00000000000000000000, 1667.00000000000000000000, 1687.00000000000000000000, 0.00000000000000000000
22.00000000000000000000, 0.00000000000000000000, 4035.89733720688130000000, 4723.07680758264000000000, 4247.69220382269300000000, 4648.20501454169880000000, 4262.05117783054540000000, 4553.84604249010230000000, 4275.89733133811660000000, 4296.41015134933330000000, 4483.58963395168480000000, 4879.48706016816690000000, 4422.05117391803470000000, 4180.51271828595870000000, 4410.76912291186640000000, 4230.76912731343960000000, 0.00000000000000000000, 4.00000000000000000000, 4.00000000000000000000, 4.00000000000000000000, 4.00000000000000000000, 4.00000000000000000000, 2.00000000000000000000, 0.00000000000000000000, 0.00000000000000000000, 4.00000000000000000000, 4.00000000000000000000, 4.00000000000000000000, 4.00000000000000000000, 4.00000000000000000000, 4.00000000000000000000, 4.00000000000000000000, 4.00000000000000000000, 1667.00000000000000000000, 1685.00000000000000000000, 0.00000000000000000000
23.00000000000000000000, 0.00000000000000000000, 4027.69220920239470000000, 4716.92296157927470000000, 4243.58963982045040000000, 4646.66655304085820000000, 4264.61528033194740000000, 4554.87168349066270000000, 4275.89733133811660000000, 4295.89733084905220000000, 4488.20501845420860000000, 4881.02552166900840000000, 4419.99989191691380000000, 4171.79476978119150000000, 4404.10245640822090000000, 4223.07681980923370000000, 0.00000000000000000000, 4.00000000000000000000, 4.00000000000000000000, 4.00000000000000000000, 4.00000000000000000000, 4.00000000000000000000, 2.00000000000000000000, 0.00000000000000000000, 0.00000000000000000000, 4.00000000000000000000, 4.00000000000000000000, 4.00000000000000000000, 4.00000000000000000000, 4.00000000000000000000, 4.00000000000000000000, 4.00000000000000000000, 4.00000000000000000000, 1666.00000000000000000000, 1686.00000000000000000000, 0.00000000000000000000
24.00000000000000000000, 0.00000000000000000000, 4024.10246570043140000000, 4716.92296157927470000000, 4244.10246032073060000000, 4644.10245053945530000000, 4264.61528033194740000000, 4554.35886299038250000000, 4274.35886983727510000000, 4295.38451034877200000000, 4490.25630045533030000000, 4878.46141916760640000000, 4416.41014841495050000000, 4168.20502627922910000000, 4397.43578990457540000000, 4215.89733280530710000000, 0.00000000000000000000, 4.00000000000000000000, 4.00000000000000000000, 4.00000000000000000000, 4.00000000000000000000, 4.00000000000000000000, 2.00000000000000000000, 0.00000000000000000000, 0.00000000000000000000, 4.00000000000000000000, 4.00000000000000000000, 4.00000000000000000000, 4.00000000000000000000, 4.00000000000000000000, 4.00000000000000000000, 4.00000000000000000000, 4.00000000000000000000, 1668.00000000000000000000, 1686.00000000000000000000, 0.00000000000000000000
25.00000000000000000000, 0.00000000000000000000, 4030.25631170379670000000, 4722.56398708235970000000, 4247.17938332241280000000, 4644.61527103973640000000, 4264.61528033194740000000, 4554.35886299038250000000, 4273.84604933699480000000, 4296.41015134933330000000, 4486.15373645308680000000, 4875.89731666620450000000, 4415.38450741439010000000, 4171.79476978119150000000, 4398.97425140541600000000, 4218.97425580699020000000, 0.00000000000000000000, 4.00000000000000000000, 4.00000000000000000000, 4.00000000000000000000, 4.00000000000000000000, 4.00000000000000000000, 2.00000000000000000000, 0.00000000000000000000, 0.00000000000000000000, 4.00000000000000000000, 4.00000000000000000000, 4.00000000000000000000, 4.00000000000000000000, 4.00000000000000000000, 4.00000000000000000000, 4.00000000000000000000, 4.00000000000000000000, 1667.00000000000000000000, 1687.00000000000000000000, 0.00000000000000000000
26.00000000000000000000, 0.00000000000000000000, 4028.20502970267490000000, 4722.05116658207860000000, 4247.17938332241280000000, 4646.15373254057700000000, 4264.61528033194740000000, 4554.87168349066270000000, 4276.92297233867700000000, 4297.94861285017400000000, 4478.46142894888090000000, 4869.74347066283920000000, 4412.82040491298720000000, 4163.58964177670530000000, 4397.43578990457540000000, 4218.97425580699020000000, 0.00000000000000000000, 4.00000000000000000000, 4.00000000000000000000, 4.00000000000000000000, 4.00000000000000000000, 4.00000000000000000000, 2.00000000000000000000, 0.00000000000000000000, 0.00000000000000000000, 4.00000000000000000000, 4.00000000000000000000, 4.00000000000000000000, 4.00000000000000000000, 4.00000000000000000000, 4.00000000000000000000, 4.00000000000000000000, 4.00000000000000000000, 1668.00000000000000000000, 1688.00000000000000000000, 0.00000000000000000000
27.00000000000000000000, 0.00000000000000000000, 4021.53836319902940000000, 4720.51270508123800000000, 4245.64092182157130000000, 4646.66655304085820000000, 4264.61528033194740000000, 4554.87168349066270000000, 4278.46143383951860000000, 4298.97425385073530000000, 4476.92296744803930000000, 4861.02552215807190000000, 4408.20502041046350000000, 4155.38451377221830000000, 4393.33322590233180000000, 4217.43579430614860000000, 0.00000000000000000000, 4.00000000000000000000, 4.00000000000000000000, 4.00000000000000000000, 4.00000000000000000000, 4.00000000000000000000, 2.00000000000000000000, 0.00000000000000000000, 0.00000000000000000000, 4.00000000000000000000, 4.00000000000000000000, 4.00000000000000000000, 4.00000000000000000000, 4.00000000000000000000, 4.00000000000000000000, 4.00000000000000000000, 4.00000000000000000000, 1668.00000000000000000000, 1687.00000000000000000000, 0.00000000000000000000
28.00000000000000000000, 0.00000000000000000000, 4025.64092720127290000000, 4725.64091008404190000000, 4248.71784482325440000000, 4648.20501454169880000000, 4264.10245983166710000000, 4554.87168349066270000000, 4276.41015183839680000000, 4295.38451034877200000000, 4484.10245445196600000000, 4861.53834265835210000000, 4412.30758441270700000000, 4163.58964177670530000000, 4398.97425140541600000000, 4226.66656331119610000000, 0.00000000000000000000, 4.00000000000000000000, 4.00000000000000000000, 4.00000000000000000000, 4.00000000000000000000, 4.00000000000000000000, 2.00000000000000000000, 0.00000000000000000000, 0.00000000000000000000, 4.00000000000000000000, 4.00000000000000000000, 4.00000000000000000000, 4.00000000000000000000, 4.00000000000000000000, 4.00000000000000000000, 4.00000000000000000000, 4.00000000000000000000, 1669.00000000000000000000, 1688.00000000000000000000, 0.00000000000000000000
29.00000000000000000000, 0.00000000000000000000, 4032.82041420519860000000, 4732.30757658768740000000, 4249.23066532353460000000, 4650.76911704310080000000, 4264.61528033194740000000, 4554.87168349066270000000, 4274.87169033755530000000, 4294.35886934821160000000, 4488.20501845420860000000, 4869.74347066283920000000, 4423.07681491859600000000, 4168.20502627922910000000, 4404.61527690850110000000, 4232.82040931456140000000, 0.00000000000000000000, 4.00000000000000000000, 4.00000000000000000000, 4.00000000000000000000, 4.00000000000000000000, 4.00000000000000000000, 2.00000000000000000000, 0.00000000000000000000, 0.00000000000000000000, 4.00000000000000000000, 4.00000000000000000000, 4.00000000000000000000, 4.00000000000000000000, 4.00000000000000000000, 4.00000000000000000000, 4.00000000000000000000, 4.00000000000000000000, 1668.00000000000000000000, 1687.00000000000000000000, 0.00000000000000000000
30.00000000000000000000, 0.00000000000000000000, 4030.76913220407690000000, 4729.74347408628550000000, 4246.66656282213260000000, 4648.71783504197900000000, 4258.46143432858210000000, 4553.84604249010230000000, 4277.94861333923840000000, 4296.92297184961350000000, 4486.66655695336790000000, 4874.87167566564310000000, 4422.05117391803470000000, 4160.51271877502220000000, 4401.02553340653780000000, 4226.15374281091590000000, 0.00000000000000000000, 4.00000000000000000000, 4.00000000000000000000, 4.00000000000000000000, 4.00000000000000000000, 4.00000000000000000000, 2.00000000000000000000, 0.00000000000000000000, 0.00000000000000000000, 4.00000000000000000000, 4.00000000000000000000, 4.00000000000000000000, 4.00000000000000000000, 4.00000000000000000000, 4.00000000000000000000, 4.00000000000000000000, 4.00000000000000000000, 1670.00000000000000000000, 1687.00000000000000000000, 0.00000000000000000000
31.00000000000000000000, 0.00000000000000000000, 4026.66656820183380000000, 4723.07680758264000000000, 4242.56399881988910000000, 4646.66655304085820000000, 4248.71784482325440000000, 4552.82040148954180000000, 4276.92297233867700000000, 4297.43579234989370000000, 4488.20501845420860000000, 4874.35885516536290000000, 4416.41014841495050000000, 4163.07682127642420000000, 4399.99989240597730000000, 4222.05117880867240000000, 0.00000000000000000000, 4.00000000000000000000, 4.00000000000000000000, 4.00000000000000000000, 4.00000000000000000000, 4.00000000000000000000, 2.00000000000000000000, 0.00000000000000000000, 0.00000000000000000000, 4.00000000000000000000, 4.00000000000000000000, 4.00000000000000000000, 4.00000000000000000000, 4.00000000000000000000, 4.00000000000000000000, 4.00000000000000000000, 4.00000000000000000000, 1670.00000000000000000000, 1687.00000000000000000000, 0.00000000000000000000
32.00000000000000000000, 0.00000000000000000000, 4031.28195270435750000000, 4723.58962808292020000000, 4245.12810132129110000000, 4647.69219404141860000000, 4249.74348582381480000000, 4553.33322198982210000000, 4273.84604933699480000000, 4296.92297184961350000000, 4487.17937745364820000000, 4871.79475266396090000000, 4422.05117391803470000000, 4170.25630828035080000000, 4406.15373840934260000000, 4228.71784531231790000000, 0.00000000000000000000, 4.00000000000000000000, 4.00000000000000000000, 4.00000000000000000000, 4.00000000000000000000, 4.00000000000000000000, 2.00000000000000000000, 0.00000000000000000000, 0.00000000000000000000, 4.00000000000000000000, 4.00000000000000000000, 4.00000000000000000000, 4.00000000000000000000, 4.00000000000000000000, 4.00000000000000000000, 4.00000000000000000000, 4.00000000000000000000, 1669.00000000000000000000, 1688.00000000000000000000, 0.00000000000000000000
33.00000000000000000000, 0.00000000000000000000, 4037.94861920800300000000, 4729.23065358600520000000, 4253.33322932577810000000, 4648.71783504197900000000, 4251.28194732465640000000, 4553.84604249010230000000, 4274.35886983727510000000, 4298.97425385073530000000, 4481.02553145028290000000, 4863.07680415919370000000, 4422.05117391803470000000, 4169.23066727978950000000, 4404.10245640822090000000, 4235.38451181596340000000, 0.00000000000000000000, 4.00000000000000000000, 4.00000000000000000000, 4.00000000000000000000, 4.00000000000000000000, 4.00000000000000000000, 2.00000000000000000000, 0.00000000000000000000, 0.00000000000000000000, 4.00000000000000000000, 4.00000000000000000000, 4.00000000000000000000, 4.00000000000000000000, 4.00000000000000000000, 4.00000000000000000000, 4.00000000000000000000, 4.00000000000000000000, 1670.00000000000000000000, 1686.00000000000000000000, 0.00000000000000000000
34.00000000000000000000, 0.00000000000000000000, 4035.89733720688130000000, 4730.25629458656570000000, 4254.35887032633850000000, 4647.17937354113840000000, 4243.58963982045040000000, 4553.84604249010230000000, 4276.41015183839680000000, 4297.43579234989370000000, 4476.41014694775910000000, 4856.41013765554820000000, 4408.71784091074460000000, 4167.17938527866770000000, 4398.97425140541600000000, 4234.35887081540300000000, 0.00000000000000000000, 4.00000000000000000000, 4.00000000000000000000, 4.00000000000000000000, 4.00000000000000000000, 4.00000000000000000000, 2.00000000000000000000, 0.00000000000000000000, 0.00000000000000000000, 4.00000000000000000000, 4.00000000000000000000, 4.00000000000000000000, 4.00000000000000000000, 4.00000000000000000000, 4.00000000000000000000, 4.00000000000000000000, 4.00000000000000000000, 1669.00000000000000000000, 1689.00000000000000000000, 0.00000000000000000000
35.00000000000000000000, 0.00000000000000000000, 4034.35887570603970000000, 4725.64091008404190000000, 4251.79476782493660000000, 4646.66655304085820000000, 4238.46143481764560000000, 4555.89732449122400000000, 4275.38451083783550000000, 4295.38451034877200000000, 4478.97424944916110000000, 4865.12808616031540000000, 4406.66655890962280000000, 4165.64092377782710000000, 4399.48707190569710000000, 4226.15374281091590000000, 0.00000000000000000000, 4.00000000000000000000, 4.00000000000000000000, 4.00000000000000000000, 4.00000000000000000000, 4.00000000000000000000, 2.00000000000000000000, 0.00000000000000000000, 0.00000000000000000000, 4.00000000000000000000, 4.00000000000000000000, 4.00000000000000000000, 4.00000000000000000000, 4.00000000000000000000, 4.00000000000000000000, 4.00000000000000000000, 4.00000000000000000000, 1670.00000000000000000000, 1688.00000000000000000000, 0.00000000000000000000
36.00000000000000000000, 0.00000000000000000000, 4036.41015770716150000000, 4720.51270508123800000000, 4256.41015232746030000000, 4649.23065554226010000000, 4237.43579381708510000000, 4555.38450399094380000000, 4275.38451083783550000000, 4298.46143335045510000000, 4486.66655695336790000000, 4873.33321416480160000000, 4408.71784091074460000000, 4161.02553927530330000000, 4397.43578990457540000000, 4219.99989680755060000000, 0.00000000000000000000, 4.00000000000000000000, 4.00000000000000000000, 4.00000000000000000000, 4.00000000000000000000, 4.00000000000000000000, 2.00000000000000000000, 0.00000000000000000000, 0.00000000000000000000, 4.00000000000000000000, 4.00000000000000000000, 4.00000000000000000000, 4.00000000000000000000, 4.00000000000000000000, 4.00000000000000000000, 4.00000000000000000000, 4.00000000000000000000, 1669.00000000000000000000, 1689.00000000000000000000, 0.00000000000000000000
37.00000000000000000000, 0.00000000000000000000, 4030.25631170379670000000, 4717.94860257983600000000, 4255.89733182718010000000, 4644.10245053945530000000, 4235.38451181596340000000, 4552.30758098926070000000, 4276.41015183839680000000, 4297.94861285017400000000, 4490.25630045533030000000, 4865.12808616031540000000, 4399.48707190569710000000, 4154.87169327193810000000, 4389.74348240036850000000, 4215.89733280530710000000, 0.00000000000000000000, 4.00000000000000000000, 4.00000000000000000000, 4.00000000000000000000, 4.00000000000000000000, 4.00000000000000000000, 2.00000000000000000000, 0.00000000000000000000, 0.00000000000000000000, 4.00000000000000000000, 4.00000000000000000000, 4.00000000000000000000, 4.00000000000000000000, 4.00000000000000000000, 4.00000000000000000000, 4.00000000000000000000, 4.00000000000000000000, 1669.00000000000000000000, 1690.00000000000000000000, 0.00000000000000000000
38.00000000000000000000, 0.00000000000000000000, 4019.48708119790760000000, 4713.33321807731230000000, 4247.69220382269300000000, 4633.84604053384740000000, 4234.87169131568320000000, 4552.30758098926070000000, 4274.35886983727510000000, 4295.89733084905220000000, 4483.07681345140460000000, 4854.87167615470660000000, 4392.30758490177050000000, 4150.25630876941430000000, 4380.51271339532100000000, 4209.74348680194270000000, 0.00000000000000000000, 4.00000000000000000000, 4.00000000000000000000, 4.00000000000000000000, 4.00000000000000000000, 4.00000000000000000000, 2.00000000000000000000, 0.00000000000000000000, 0.00000000000000000000, 4.00000000000000000000, 4.00000000000000000000, 4.00000000000000000000, 4.00000000000000000000, 4.00000000000000000000, 4.00000000000000000000, 4.00000000000000000000, 4.00000000000000000000, 1670.00000000000000000000, 1690.00000000000000000000, 0.00000000000000000000
39.00000000000000000000, 0.00000000000000000000, 4017.94861969706650000000, 4708.20501307450740000000, 4248.20502432297420000000, 4631.28193803244540000000, 4234.87169131568320000000, 4554.35886299038250000000, 4273.84604933699480000000, 4297.94861285017400000000, 4480.51271095000270000000, 4859.48706065723040000000, 4395.89732840373380000000, 4154.87169327193810000000, 4378.97425189448040000000, 4210.25630730222290000000, 0.00000000000000000000, 4.00000000000000000000, 4.00000000000000000000, 4.00000000000000000000, 4.00000000000000000000, 4.00000000000000000000, 2.00000000000000000000, 0.00000000000000000000, 0.00000000000000000000, 4.00000000000000000000, 4.00000000000000000000, 4.00000000000000000000, 4.00000000000000000000, 4.00000000000000000000, 4.00000000000000000000, 4.00000000000000000000, 4.00000000000000000000, 1668.00000000000000000000, 1690.00000000000000000000, 0.00000000000000000000
40.00000000000000000000, 0.00000000000000000000, 4022.56400419959030000000, 4707.17937207394700000000, 4253.84604982605830000000, 4633.84604053384740000000, 4233.33322981484160000000, 4554.35886299038250000000, 4274.87169033755530000000, 4298.97425385073530000000, 4483.58963395168480000000, 4858.97424015695010000000, 4400.51271290625750000000, 4161.53835977558360000000, 4382.56399539644280000000, 4215.38451230502690000000, 0.00000000000000000000, 4.00000000000000000000, 4.00000000000000000000, 4.00000000000000000000, 4.00000000000000000000, 4.00000000000000000000, 2.00000000000000000000, 0.00000000000000000000, 0.00000000000000000000, 4.00000000000000000000, 4.00000000000000000000, 4.00000000000000000000, 4.00000000000000000000, 4.00000000000000000000, 4.00000000000000000000, 4.00000000000000000000, 4.00000000000000000000, 1669.00000000000000000000, 1688.00000000000000000000, 0.00000000000000000000
41.00000000000000000000, 0.00000000000000000000, 4025.64092720127290000000, 4707.69219257422720000000, 4252.82040882549790000000, 4634.87168153440780000000, 4233.33322981484160000000, 4549.74347848785870000000, 4274.35886983727510000000, 4296.92297184961350000000, 4478.97424944916110000000, 4843.07680464825720000000, 4394.87168740317340000000, 4163.07682127642420000000, 4377.94861089391910000000, 4217.43579430614860000000, 0.00000000000000000000, 4.00000000000000000000, 4.00000000000000000000, 4.00000000000000000000, 4.00000000000000000000, 4.00000000000000000000, 2.00000000000000000000, 0.00000000000000000000, 0.00000000000000000000, 4.00000000000000000000, 4.00000000000000000000, 4.00000000000000000000, 4.00000000000000000000, 4.00000000000000000000, 4.00000000000000000000, 4.00000000000000000000, 4.00000000000000000000, 1668.00000000000000000000, 1689.00000000000000000000, 0.00000000000000000000
42.00000000000000000000, 0.00000000000000000000, 4029.74349120351600000000, 4710.25629507562920000000, 4255.38451132689990000000, 4638.46142503637110000000, 4234.87169131568320000000, 4546.66655548617650000000, 4272.82040833643350000000, 4297.94861285017400000000, 4478.97424944916110000000, 4842.56398414797700000000, 4396.41014890401400000000, 4166.15374427810730000000, 4376.92296989335860000000, 4216.41015330558820000000, 0.00000000000000000000, 4.00000000000000000000, 4.00000000000000000000, 4.00000000000000000000, 4.00000000000000000000, 4.00000000000000000000, 2.00000000000000000000, 0.00000000000000000000, 0.00000000000000000000, 4.00000000000000000000, 4.00000000000000000000, 4.00000000000000000000, 4.00000000000000000000, 4.00000000000000000000, 4.00000000000000000000, 4.00000000000000000000, 4.00000000000000000000, 1669.00000000000000000000, 1687.00000000000000000000, 0.00000000000000000000
43.00000000000000000000, 0.00000000000000000000, 4034.87169620632040000000, 4715.89732057871420000000, 4263.58963933138600000000, 4643.58963003917510000000, 4235.89733231624360000000, 4550.76911948842010000000, 4272.82040833643350000000, 4298.46143335045510000000, 4490.76912095561060000000, 4861.02552215807190000000, 4409.23066141102480000000, 4170.25630828035080000000, 4389.74348240036850000000, 4217.94861480642880000000, 0.00000000000000000000, 4.00000000000000000000, 4.00000000000000000000, 4.00000000000000000000, 4.00000000000000000000, 4.00000000000000000000, 2.00000000000000000000, 0.00000000000000000000, 0.00000000000000000000, 4.00000000000000000000, 4.00000000000000000000, 4.00000000000000000000, 4.00000000000000000000, 4.00000000000000000000, 4.00000000000000000000, 4.00000000000000000000, 4.00000000000000000000, 1668.00000000000000000000, 1688.00000000000000000000, 0.00000000000000000000
44.00000000000000000000, 0.00000000000000000000, 4037.94861920800300000000, 4716.92296157927470000000, 4265.12810083222760000000, 4644.10245053945530000000, 4234.35887081540300000000, 4555.38450399094380000000, 4273.33322883671460000000, 4295.38451034877200000000, 4494.35886445757390000000, 4868.71782966227780000000, 4406.66655890962280000000, 4171.28194928091120000000, 4393.33322590233180000000, 4220.51271730783080000000, 0.00000000000000000000, 4.00000000000000000000, 4.00000000000000000000, 4.00000000000000000000, 4.00000000000000000000, 4.00000000000000000000, 2.00000000000000000000, 0.00000000000000000000, 0.00000000000000000000, 4.00000000000000000000, 4.00000000000000000000, 4.00000000000000000000, 4.00000000000000000000, 4.00000000000000000000, 4.00000000000000000000, 4.00000000000000000000, 4.00000000000000000000, 1668.00000000000000000000, 1686.00000000000000000000, 0.00000000000000000000
45.00000000000000000000, 0.00000000000000000000, 4035.38451670660060000000, 4712.82039757703110000000, 4259.99989582942360000000, 4641.02552753777310000000, 4233.33322981484160000000, 4553.33322198982210000000, 4273.84604933699480000000, 4296.41015134933330000000, 4487.69219795392840000000, 4861.53834265835210000000, 4394.35886690289230000000, 4170.25630828035080000000, 4384.10245689728440000000, 4221.02553780811190000000, 0.00000000000000000000, 4.00000000000000000000, 4.00000000000000000000, 4.00000000000000000000, 4.00000000000000000000, 4.00000000000000000000, 2.00000000000000000000, 0.00000000000000000000, 0.00000000000000000000, 4.00000000000000000000, 4.00000000000000000000, 4.00000000000000000000, 4.00000000000000000000, 4.00000000000000000000, 4.00000000000000000000, 4.00000000000000000000, 4.00000000000000000000, 1667.00000000000000000000, 1688.00000000000000000000, 0.00000000000000000000
46.00000000000000000000, 0.00000000000000000000, 4029.23067070323580000000, 4709.74347457534900000000, 4255.89733182718010000000, 4639.99988653721270000000, 4237.94861431736540000000, 4549.23065798757850000000, 4274.35886983727510000000, 4297.94861285017400000000, 4489.23065945476990000000, 4856.41013765554820000000, 4405.12809740878130000000, 4171.79476978119150000000, 4386.15373889840610000000, 4223.07681980923370000000, 0.00000000000000000000, 4.00000000000000000000, 4.00000000000000000000, 4.00000000000000000000, 4.00000000000000000000, 4.00000000000000000000, 2.00000000000000000000, 0.00000000000000000000, 0.00000000000000000000, 4.00000000000000000000, 4.00000000000000000000, 4.00000000000000000000, 4.00000000000000000000, 4.00000000000000000000, 4.00000000000000000000, 4.00000000000000000000, 4.00000000000000000000, 1669.00000000000000000000, 1685.00000000000000000000, 0.00000000000000000000
47.00000000000000000000, 0.00000000000000000000, 4029.74349120351600000000, 4710.25629507562920000000, 4258.97425482886230000000, 4642.05116853833440000000, 4239.48707581820690000000, 4549.74347848785870000000, 4273.84604933699480000000, 4295.89733084905220000000, 4494.87168495785410000000, 4859.48706065723040000000, 4421.53835341775450000000, 4172.82041078175280000000, 4395.38450790345360000000, 4227.69220431175750000000, 0.00000000000000000000, 4.00000000000000000000, 4.00000000000000000000, 4.00000000000000000000, 4.00000000000000000000, 4.00000000000000000000, 2.00000000000000000000, 0.00000000000000000000, 0.00000000000000000000, 4.00000000000000000000, 4.00000000000000000000, 4.00000000000000000000, 4.00000000000000000000, 4.00000000000000000000, 4.00000000000000000000, 4.00000000000000000000, 4.00000000000000000000, 1668.00000000000000000000, 1685.00000000000000000000, 0.00000000000000000000
48.00000000000000000000, 0.00000000000000000000, 4031.79477320463770000000, 4709.23065407506870000000, 4260.51271632970380000000, 4640.51270703749290000000, 4234.35887081540300000000, 4549.23065798757850000000, 4273.84604933699480000000, 4295.38451034877200000000, 4488.20501845420860000000, 4864.61526566003520000000, 4411.79476391242680000000, 4171.79476978119150000000, 4394.87168740317340000000, 4230.25630681315940000000, 0.00000000000000000000, 4.00000000000000000000, 4.00000000000000000000, 4.00000000000000000000, 4.00000000000000000000, 4.00000000000000000000, 2.00000000000000000000, 0.00000000000000000000, 0.00000000000000000000, 4.00000000000000000000, 4.00000000000000000000, 4.00000000000000000000, 4.00000000000000000000, 4.00000000000000000000, 4.00000000000000000000, 4.00000000000000000000, 4.00000000000000000000, 1667.00000000000000000000, 1687.00000000000000000000, 0.00000000000000000000
49.00000000000000000000, 0.00000000000000000000, 4027.17938870211400000000, 4706.15373107338560000000, 4255.38451132689990000000, 4634.35886103412760000000, 4232.30758881428120000000, 4549.74347848785870000000, 4274.87169033755530000000, 4296.92297184961350000000, 4477.43578794832050000000, 4861.53834265835210000000, 4401.53835390681890000000, 4171.79476978119150000000, 4388.20502089952790000000, 4226.66656331119610000000, 0.00000000000000000000, 4.00000000000000000000, 4.00000000000000000000, 4.00000000000000000000, 4.00000000000000000000, 4.00000000000000000000, 2.00000000000000000000, 0.00000000000000000000, 0.00000000000000000000, 4.00000000000000000000, 4.00000000000000000000, 4.00000000000000000000, 4.00000000000000000000, 4.00000000000000000000, 4.00000000000000000000, 4.00000000000000000000, 4.00000000000000000000, 1668.00000000000000000000, 1686.00000000000000000000, 0.00000000000000000000
50.00000000000000000000, 0.00000000000000000000, 4018.97426069762740000000, 4704.10244907226480000000, 4247.17938332241280000000, 4631.79475853272560000000, 4234.35887081540300000000, 4548.20501698701810000000, 4274.87169033755530000000, 4297.43579234989370000000, 4475.38450594719870000000, 4848.71783015134220000000, 4403.58963590793970000000, 4168.20502627922910000000, 4381.53835439588240000000, 4221.02553780811190000000, 0.00000000000000000000, 4.00000000000000000000, 4.00000000000000000000, 4.00000000000000000000, 4.00000000000000000000, 4.00000000000000000000, 2.00000000000000000000, 0.00000000000000000000, 0.00000000000000000000, 4.00000000000000000000, 4.00000000000000000000, 4.00000000000000000000, 4.00000000000000000000, 4.00000000000000000000, 4.00000000000000000000, 4.00000000000000000000, 4.00000000000000000000, 1667.00000000000000000000, 1687.00000000000000000000, 0.00000000000000000000
51.00000000000000000000, 0.00000000000000000000, 4010.76913269314080000000, 4700.51270557030150000000, 4241.02553731904750000000, 4629.74347653160380000000, 4232.82040931456140000000, 4548.71783748729830000000, 4274.35886983727510000000, 4295.89733084905220000000, 4477.94860844860070000000, 4843.07680464825720000000, 4395.38450790345360000000, 4156.41015477277960000000, 4373.33322639139530000000, 4214.35887130446640000000, 0.00000000000000000000, 4.00000000000000000000, 4.00000000000000000000, 4.00000000000000000000, 4.00000000000000000000, 4.00000000000000000000, 2.00000000000000000000, 0.00000000000000000000, 0.00000000000000000000, 4.00000000000000000000, 4.00000000000000000000, 4.00000000000000000000, 4.00000000000000000000, 4.00000000000000000000, 4.00000000000000000000, 4.00000000000000000000, 4.00000000000000000000, 1667.00000000000000000000, 1686.00000000000000000000, 0.00000000000000000000
52.00000000000000000000, 0.00000000000000000000, 4010.76913269314080000000, 4695.38450056749750000000, 4240.51271681876730000000, 4624.61527152879990000000, 4230.25630681315940000000, 4550.25629898813900000000, 4273.33322883671460000000, 4296.41015134933330000000, 4479.99989044972240000000, 4850.76911215246400000000, 4387.17937989896650000000, 4150.25630876941430000000, 4371.79476489055470000000, 4212.82040980362490000000, 0.00000000000000000000, 4.00000000000000000000, 4.00000000000000000000, 4.00000000000000000000, 4.00000000000000000000, 4.00000000000000000000, 2.00000000000000000000, 0.00000000000000000000, 0.00000000000000000000, 4.00000000000000000000, 4.00000000000000000000, 4.00000000000000000000, 4.00000000000000000000, 4.00000000000000000000, 4.00000000000000000000, 4.00000000000000000000, 4.00000000000000000000, 1667.00000000000000000000, 1686.00000000000000000000, 0.00000000000000000000
53.00000000000000000000, 0.00000000000000000000, 4015.89733769594480000000, 4697.94860306889950000000, 4246.66656282213260000000, 4624.61527152879990000000, 4229.74348631287920000000, 4548.20501698701810000000, 4273.84604933699480000000, 4296.92297184961350000000, 4484.61527495224620000000, 4855.38449665498770000000, 4392.30758490177050000000, 4154.35887277165780000000, 4377.94861089391910000000, 4216.41015330558820000000, 0.00000000000000000000, 4.00000000000000000000, 4.00000000000000000000, 4.00000000000000000000, 4.00000000000000000000, 4.00000000000000000000, 2.00000000000000000000, 0.00000000000000000000, 0.00000000000000000000, 4.00000000000000000000, 4.00000000000000000000, 4.00000000000000000000, 4.00000000000000000000, 4.00000000000000000000, 4.00000000000000000000, 4.00000000000000000000, 4.00000000000000000000, 1667.00000000000000000000, 1686.00000000000000000000, 0.00000000000000000000
54.00000000000000000000, 0.00000000000000000000, 4015.89733769594480000000, 4701.02552607058170000000, 4248.71784482325440000000, 4628.71783553104340000000, 4234.35887081540300000000, 4550.76911948842010000000, 4275.38451083783550000000, 4296.41015134933330000000, 4489.23065945476990000000, 4852.30757365330460000000, 4396.41014890401400000000, 4156.41015477277960000000, 4378.97425189448040000000, 4217.94861480642880000000, 0.00000000000000000000, 4.00000000000000000000, 4.00000000000000000000, 4.00000000000000000000, 4.00000000000000000000, 4.00000000000000000000, 2.00000000000000000000, 0.00000000000000000000, 0.00000000000000000000, 4.00000000000000000000, 4.00000000000000000000, 4.00000000000000000000, 4.00000000000000000000, 4.00000000000000000000, 4.00000000000000000000, 4.00000000000000000000, 4.00000000000000000000, 1666.00000000000000000000, 1686.00000000000000000000, 0.00000000000000000000
55.00000000000000000000, 0.00000000000000000000, 4015.38451719566460000000, 4701.02552607058170000000, 4243.07681932016930000000, 4631.79475853272560000000, 4242.56399881988910000000, 4554.35886299038250000000, 4277.43579283895720000000, 4296.92297184961350000000, 4489.74347995505010000000, 4854.87167615470660000000, 4395.38450790345360000000, 4153.84605227137670000000, 4379.99989289504080000000, 4215.38451230502690000000, 0.00000000000000000000, 4.00000000000000000000, 4.00000000000000000000, 4.00000000000000000000, 4.00000000000000000000, 4.00000000000000000000, 2.00000000000000000000, 0.00000000000000000000, 0.00000000000000000000, 4.00000000000000000000, 4.00000000000000000000, 4.00000000000000000000, 4.00000000000000000000, 4.00000000000000000000, 4.00000000000000000000, 4.00000000000000000000, 4.00000000000000000000, 1667.00000000000000000000, 1685.00000000000000000000, 0.00000000000000000000
56.00000000000000000000, 0.00000000000000000000, 4018.46144019734720000000, 4703.58962857198370000000, 4239.99989631848710000000, 4631.28193803244540000000, 4245.64092182157130000000, 4555.38450399094380000000, 4276.41015183839680000000, 4297.94861285017400000000, 4491.28194145589170000000, 4860.51270165779170000000, 4403.58963590793970000000, 4154.87169327193810000000, 4391.79476440149030000000, 4217.43579430614860000000, 0.00000000000000000000, 4.00000000000000000000, 4.00000000000000000000, 4.00000000000000000000, 4.00000000000000000000, 4.00000000000000000000, 2.00000000000000000000, 0.00000000000000000000, 0.00000000000000000000, 4.00000000000000000000, 4.00000000000000000000, 4.00000000000000000000, 4.00000000000000000000, 4.00000000000000000000, 4.00000000000000000000, 4.00000000000000000000, 4.00000000000000000000, 1667.00000000000000000000, 1686.00000000000000000000, 0.00000000000000000000
57.00000000000000000000, 0.00000000000000000000, 4017.94861969706650000000, 4704.10244907226480000000, 4243.58963982045040000000, 4630.76911753216520000000, 4245.12810132129110000000, 4554.87168349066270000000, 4275.89733133811660000000, 4296.92297184961350000000, 4492.82040295673230000000, 4860.51270165779170000000, 4411.28194341214660000000, 4157.43579577334000000000, 4397.94861040485560000000, 4218.46143530671000000000, 0.00000000000000000000, 4.00000000000000000000, 4.00000000000000000000, 4.00000000000000000000, 4.00000000000000000000, 4.00000000000000000000, 2.00000000000000000000, 0.00000000000000000000, 0.00000000000000000000, 4.00000000000000000000, 4.00000000000000000000, 4.00000000000000000000, 4.00000000000000000000, 4.00000000000000000000, 4.00000000000000000000, 4.00000000000000000000, 4.00000000000000000000, 1667.00000000000000000000, 1686.00000000000000000000, 0.00000000000000000000
58.00000000000000000000, 0.00000000000000000000, 4015.89733769594480000000, 4702.56398757142320000000, 4246.66656282213260000000, 4634.35886103412760000000, 4246.66656282213260000000, 4554.87168349066270000000, 4278.97425433979880000000, 4294.87168984849180000000, 4490.25630045533030000000, 4859.99988115751150000000, 4403.07681540765950000000, 4154.87169327193810000000, 4391.79476440149030000000, 4215.38451230502690000000, 0.00000000000000000000, 4.00000000000000000000, 4.00000000000000000000, 4.00000000000000000000, 4.00000000000000000000, 4.00000000000000000000, 2.00000000000000000000, 0.00000000000000000000, 0.00000000000000000000, 4.00000000000000000000, 4.00000000000000000000, 4.00000000000000000000, 4.00000000000000000000, 4.00000000000000000000, 4.00000000000000000000, 4.00000000000000000000, 4.00000000000000000000, 1667.00000000000000000000, 1687.00000000000000000000, 0.00000000000000000000
59.00000000000000000000, 0.00000000000000000000, 4022.56400419959030000000, 4709.74347457534900000000, 4247.17938332241280000000, 4640.51270703749290000000, 4247.69220382269300000000, 4549.23065798757850000000, 4278.97425433979880000000, 4296.41015134933330000000, 4487.69219795392840000000, 4859.48706065723040000000, 4403.07681540765950000000, 4152.82041127081630000000, 4390.76912340092990000000, 4217.43579430614860000000, 0.00000000000000000000, 4.00000000000000000000, 4.00000000000000000000, 4.00000000000000000000, 4.00000000000000000000, 4.00000000000000000000, 2.00000000000000000000, 0.00000000000000000000, 0.00000000000000000000, 4.00000000000000000000, 4.00000000000000000000, 4.00000000000000000000, 4.00000000000000000000, 4.00000000000000000000, 4.00000000000000000000, 4.00000000000000000000, 4.00000000000000000000, 1667.00000000000000000000, 1686.00000000000000000000, 0.00000000000000000000
60.00000000000000000000, 0.00000000000000000000, 4033.84605520575950000000, 4719.99988458095780000000, 4251.28194732465640000000, 4646.15373254057700000000, 4245.64092182157130000000, 4548.20501698701810000000, 4275.38451083783550000000, 4296.92297184961350000000, 4490.25630045533030000000, 4858.97424015695010000000, 4415.89732791467030000000, 4159.99989827474200000000, 4397.43578990457540000000, 4226.66656331119610000000, 0.00000000000000000000, 4.00000000000000000000, 4.00000000000000000000, 4.00000000000000000000, 4.00000000000000000000, 4.00000000000000000000, 2.00000000000000000000, 0.00000000000000000000, 0.00000000000000000000, 4.00000000000000000000, 4.00000000000000000000, 4.00000000000000000000, 4.00000000000000000000, 4.00000000000000000000, 4.00000000000000000000, 4.00000000000000000000, 4.00000000000000000000, 1667.00000000000000000000, 1687.00000000000000000000, 0.00000000000000000000
61.00000000000000000000, 0.00000000000000000000, 4036.92297820744220000000, 4723.58962808292020000000, 4255.89733182718010000000, 4646.15373254057700000000, 4246.15374232185240000000, 4554.35886299038250000000, 4274.87169033755530000000, 4295.89733084905220000000, 4494.35886445757390000000, 4869.74347066283920000000, 4415.89732791467030000000, 4171.28194928091120000000, 4405.12809740878130000000, 4233.84605031512180000000, 0.00000000000000000000, 4.00000000000000000000, 4.00000000000000000000, 4.00000000000000000000, 4.00000000000000000000, 4.00000000000000000000, 2.00000000000000000000, 0.00000000000000000000, 0.00000000000000000000, 4.00000000000000000000, 4.00000000000000000000, 4.00000000000000000000, 4.00000000000000000000, 4.00000000000000000000, 4.00000000000000000000, 4.00000000000000000000, 4.00000000000000000000, 1667.00000000000000000000, 1686.00000000000000000000, 0.00000000000000000000
62.00000000000000000000, 0.00000000000000000000, 4033.84605520575950000000, 4723.58962808292020000000, 4256.41015232746030000000, 4644.10245053945530000000, 4250.76912682437610000000, 4554.87168349066270000000, 4276.41015183839680000000, 4297.43579234989370000000, 4493.33322345701340000000, 4882.05116266956880000000, 4406.66655890962280000000, 4169.23066727978950000000, 4408.20502041046350000000, 4232.82040931456140000000, 0.00000000000000000000, 4.00000000000000000000, 4.00000000000000000000, 4.00000000000000000000, 4.00000000000000000000, 4.00000000000000000000, 2.00000000000000000000, 0.00000000000000000000, 0.00000000000000000000, 4.00000000000000000000, 4.00000000000000000000, 4.00000000000000000000, 4.00000000000000000000, 4.00000000000000000000, 4.00000000000000000000, 4.00000000000000000000, 4.00000000000000000000, 1667.00000000000000000000, 1687.00000000000000000000, 0.00000000000000000000
63.00000000000000000000, 0.00000000000000000000, 4032.30759370491840000000, 4722.05116658207860000000, 4251.79476782493660000000, 4643.58963003917510000000, 4251.28194732465640000000, 4552.82040148954180000000, 4274.35886983727510000000, 4298.97425385073530000000, 4488.71783895448970000000, 4873.84603466508270000000, 4414.35886641382880000000, 4160.51271877502220000000, 4404.61527690850110000000, 4228.20502481203770000000, 0.00000000000000000000, 4.00000000000000000000, 4.00000000000000000000, 4.00000000000000000000, 4.00000000000000000000, 4.00000000000000000000, 2.00000000000000000000, 0.00000000000000000000, 0.00000000000000000000, 4.00000000000000000000, 4.00000000000000000000, 4.00000000000000000000, 4.00000000000000000000, 4.00000000000000000000, 4.00000000000000000000, 4.00000000000000000000, 4.00000000000000000000, 1667.00000000000000000000, 1686.00000000000000000000, 0.00000000000000000000
64.00000000000000000000, 0.00000000000000000000, 4029.74349120351600000000, 4718.46142308011620000000, 4247.17938332241280000000, 4641.53834803805330000000, 4245.64092182157130000000, 4554.35886299038250000000, 4273.33322883671460000000, 4296.92297184961350000000, 4488.71783895448970000000, 4859.99988115751150000000, 4419.99989191691380000000, 4155.89733427249850000000, 4397.94861040485560000000, 4221.53835830839220000000, 402.00000000000000000000, 4.00000000000000000000, 4.00000000000000000000, 4.00000000000000000000, 4.00000000000000000000, 4.00000000000000000000, 2.00000000000000000000, 0.00000000000000000000, 0.00000000000000000000, 4.00000000000000000000, 4.00000000000000000000, 4.00000000000000000000, 4.00000000000000000000, 4.00000000000000000000, 4.00000000000000000000, 4.00000000000000000000, 4.00000000000000000000, 1666.00000000000000000000, 1687.00000000000000000000, 0.00000000000000000000
65.00000000000000000000, 0.00000000000000000000, 4022.05118369931010000000, 4711.79475657647070000000, 4243.07681932016930000000, 4634.87168153440780000000, 4243.07681932016930000000, 4551.79476048898050000000, 4273.84604933699480000000, 4295.89733084905220000000, 4491.28194145589170000000, 4857.94859915638970000000, 4402.05117440709910000000, 4149.23066776885300000000, 4387.69220039924680000000, 4213.33323030390510000000, 453.00000000000000000000, 4.00000000000000000000, 4.00000000000000000000, 4.00000000000000000000, 4.00000000000000000000, 4.00000000000000000000, 2.00000000000000000000, 0.00000000000000000000, 0.00000000000000000000, 4.00000000000000000000, 4.00000000000000000000, 4.00000000000000000000, 4.00000000000000000000, 4.00000000000000000000, 4.00000000000000000000, 4.00000000000000000000, 4.00000000000000000000, 1667.00000000000000000000, 1687.00000000000000000000, 0.00000000000000000000
66.00000000000000000000, 0.00000000000000000000, 4013.33323519454280000000, 4705.64091057310540000000, 4240.51271681876730000000, 4630.25629703188410000000, 4244.10246032073060000000, 4549.74347848785870000000, 4274.35886983727510000000, 4297.94861285017400000000, 4484.61527495224620000000, 4855.38449665498770000000, 4389.23066190008830000000, 4141.53836026464710000000, 4381.02553389560220000000, 4207.69220480082090000000, 511.00000000000000000000, 4.00000000000000000000, 4.00000000000000000000, 4.00000000000000000000, 4.00000000000000000000, 4.00000000000000000000, 2.00000000000000000000, 0.00000000000000000000, 0.00000000000000000000, 4.00000000000000000000, 4.00000000000000000000, 4.00000000000000000000, 4.00000000000000000000, 4.00000000000000000000, 4.00000000000000000000, 4.00000000000000000000, 4.00000000000000000000, 1666.00000000000000000000, 1688.00000000000000000000, 0.00000000000000000000
67.00000000000000000000, 0.00000000000000000000, 4007.17938919117800000000, 4702.05116707114300000000, 4235.38451181596340000000, 4629.23065603132360000000, 4244.10246032073060000000, 4553.84604249010230000000, 4273.84604933699480000000, 4297.94861285017400000000, 4478.46142894888090000000, 4850.25629165218290000000, 4390.25630290064960000000, 4141.02553976436680000000, 4379.99989289504080000000, 4204.10246129885760000000, 527.00000000000000000000, 4.00000000000000000000, 4.00000000000000000000, 4.00000000000000000000, 4.00000000000000000000, 4.00000000000000000000, 2.00000000000000000000, 0.00000000000000000000, 0.00000000000000000000, 4.00000000000000000000, 4.00000000000000000000, 4.00000000000000000000, 4.00000000000000000000, 4.00000000000000000000, 4.00000000000000000000, 4.00000000000000000000, 4.00000000000000000000, 1666.00000000000000000000, 1689.00000000000000000000, 0.00000000000000000000
68.00000000000000000000, 0.00000000000000000000, 4007.69220969145820000000, 4701.02552607058170000000, 4234.35887081540300000000, 4628.71783553104340000000, 4244.61528082101090000000, 4553.84604249010230000000, 4273.33322883671460000000, 4296.41015134933330000000, 4484.10245445196600000000, 4854.35885565442640000000, 4392.30758490177050000000, 4147.17938576773120000000, 4379.99989289504080000000, 4206.15374329997940000000, 481.00000000000000000000, 4.00000000000000000000, 4.00000000000000000000, 4.00000000000000000000, 4.00000000000000000000, 4.00000000000000000000, 2.00000000000000000000, 0.00000000000000000000, 0.00000000000000000000, 4.00000000000000000000, 4.00000000000000000000, 4.00000000000000000000, 4.00000000000000000000, 4.00000000000000000000, 4.00000000000000000000, 4.00000000000000000000, 4.00000000000000000000, 1667.00000000000000000000, 1687.00000000000000000000, 0.00000000000000000000
69.00000000000000000000, 0.00000000000000000000, 4017.43579919678630000000, 4705.64091057310540000000, 4244.10246032073060000000, 4630.76911753216520000000, 4247.17938332241280000000, 4550.76911948842010000000, 4273.84604933699480000000, 4295.38451034877200000000, 4492.30758245645210000000, 4860.51270165779170000000, 4399.99989240597730000000, 4152.82041127081630000000, 4386.15373889840610000000, 4213.84605080418620000000, 280.00000000000000000000, 4.00000000000000000000, 4.00000000000000000000, 4.00000000000000000000, 4.00000000000000000000, 4.00000000000000000000, 2.00000000000000000000, 0.00000000000000000000, 0.00000000000000000000, 4.00000000000000000000, 4.00000000000000000000, 4.00000000000000000000, 4.00000000000000000000, 4.00000000000000000000, 4.00000000000000000000, 4.00000000000000000000, 4.00000000000000000000, 1666.00000000000000000000, 1689.00000000000000000000, 0.00000000000000000000
70.00000000000000000000, 0.00000000000000000000, 4026.66656820183380000000, 4712.82039757703110000000, 4252.30758832521680000000, 4635.38450203468890000000, 4247.17938332241280000000, 4552.30758098926070000000, 4276.41015183839680000000, 4296.41015134933330000000, 4491.79476195617190000000, 4861.53834265835210000000, 4408.71784091074460000000, 4159.99989827474200000000, 4398.97425140541600000000, 4225.12810181035550000000, 0.00000000000000000000, 4.00000000000000000000, 4.00000000000000000000, 4.00000000000000000000, 4.00000000000000000000, 4.00000000000000000000, 2.00000000000000000000, 0.00000000000000000000, 0.00000000000000000000, 4.00000000000000000000, 4.00000000000000000000, 4.00000000000000000000, 4.00000000000000000000, 4.00000000000000000000, 4.00000000000000000000, 4.00000000000000000000, 4.00000000000000000000, 1667.00000000000000000000, 1688.00000000000000000000, 0.00000000000000000000
71.00000000000000000000, 0.00000000000000000000, 4029.23067070323580000000, 4714.87167957815290000000, 4251.79476782493660000000, 4636.92296353552960000000, 4247.17938332241280000000, 4554.35886299038250000000, 4277.43579283895720000000, 4298.97425385073530000000, 4487.69219795392840000000, 4859.48706065723040000000, 4404.10245640822090000000, 4162.56400077614400000000, 4397.43578990457540000000, 4229.23066581259810000000, 0.00000000000000000000, 4.00000000000000000000, 4.00000000000000000000, 4.00000000000000000000, 4.00000000000000000000, 4.00000000000000000000, 2.00000000000000000000, 0.00000000000000000000, 0.00000000000000000000, 4.00000000000000000000, 4.00000000000000000000, 4.00000000000000000000, 4.00000000000000000000, 4.00000000000000000000, 4.00000000000000000000, 4.00000000000000000000, 4.00000000000000000000, 1667.00000000000000000000, 1689.00000000000000000000, 0.00000000000000000000
72.00000000000000000000, 0.00000000000000000000, 4030.25631170379670000000, 4712.30757707675090000000, 4250.25630632409500000000, 4637.94860453609090000000, 4244.10246032073060000000, 4554.35886299038250000000, 4276.41015183839680000000, 4297.43579234989370000000, 4487.69219795392840000000, 4858.46141965666990000000, 4395.38450790345360000000, 4158.97425727418160000000, 4386.15373889840610000000, 4223.58964030951390000000, 323.00000000000000000000, 4.00000000000000000000, 4.00000000000000000000, 4.00000000000000000000, 4.00000000000000000000, 4.00000000000000000000, 2.00000000000000000000, 0.00000000000000000000, 0.00000000000000000000, 4.00000000000000000000, 4.00000000000000000000, 4.00000000000000000000, 4.00000000000000000000, 4.00000000000000000000, 4.00000000000000000000, 4.00000000000000000000, 4.00000000000000000000, 1667.00000000000000000000, 1689.00000000000000000000, 0.00000000000000000000
73.00000000000000000000, 0.00000000000000000000, 4030.76913220407690000000, 4712.30757707675090000000, 4253.33322932577810000000, 4640.51270703749290000000, 4240.51271681876730000000, 4551.28193998870030000000, 4277.43579283895720000000, 4295.38451034877200000000, 4490.76912095561060000000, 4859.99988115751150000000, 4398.97425140541600000000, 4159.48707777446180000000, 4390.25630290064960000000, 4223.07681980923370000000, 442.00000000000000000000, 4.00000000000000000000, 4.00000000000000000000, 4.00000000000000000000, 4.00000000000000000000, 4.00000000000000000000, 2.00000000000000000000, 0.00000000000000000000, 0.00000000000000000000, 4.00000000000000000000, 4.00000000000000000000, 4.00000000000000000000, 4.00000000000000000000, 4.00000000000000000000, 4.00000000000000000000, 4.00000000000000000000, 4.00000000000000000000, 1666.00000000000000000000, 1689.00000000000000000000, 0.00000000000000000000
74.00000000000000000000, 0.00000000000000000000, 4029.74349120351600000000, 4711.79475657647070000000, 4254.35887032633850000000, 4640.51270703749290000000, 4242.05117831960890000000, 4545.64091448561520000000, 4278.46143383951860000000, 4295.89733084905220000000, 4489.23065945476990000000, 4862.56398365891350000000, 4403.07681540765950000000, 4157.94861627362020000000, 4397.94861040485560000000, 4224.61528131007440000000, 501.00000000000000000000, 4.00000000000000000000, 4.00000000000000000000, 4.00000000000000000000, 4.00000000000000000000, 4.00000000000000000000, 2.00000000000000000000, 0.00000000000000000000, 0.00000000000000000000, 4.00000000000000000000, 4.00000000000000000000, 4.00000000000000000000, 4.00000000000000000000, 4.00000000000000000000, 4.00000000000000000000, 4.00000000000000000000, 4.00000000000000000000, 1668.00000000000000000000, 1688.00000000000000000000, 0.00000000000000000000
75.00000000000000000000, 0.00000000000000000000, 4026.66656820183380000000, 4712.30757707675090000000, 4250.25630632409500000000, 4638.97424553665130000000, 4246.15374232185240000000, 4548.20501698701810000000, 4276.92297233867700000000, 4294.87168984849180000000, 4482.56399295112440000000, 4859.48706065723040000000, 4397.43578990457540000000, 4153.33323177109650000000, 4393.84604640261200000000, 4220.51271730783080000000, 460.00000000000000000000, 4.00000000000000000000, 4.00000000000000000000, 4.00000000000000000000, 4.00000000000000000000, 4.00000000000000000000, 2.00000000000000000000, 0.00000000000000000000, 0.00000000000000000000, 4.00000000000000000000, 4.00000000000000000000, 4.00000000000000000000, 4.00000000000000000000, 4.00000000000000000000, 4.00000000000000000000, 4.00000000000000000000, 4.00000000000000000000, 1666.00000000000000000000, 1688.00000000000000000000, 0.00000000000000000000
76.00000000000000000000, 0.00000000000000000000, 4027.17938870211400000000, 4716.41014107899450000000, 4246.66656282213260000000, 4639.48706603693150000000, 4246.66656282213260000000, 4553.84604249010230000000, 4277.43579283895720000000, 4294.35886934821160000000, 4483.58963395168480000000, 4857.43577865610950000000, 4400.51271290625750000000, 4154.87169327193810000000, 4393.84604640261200000000, 4224.61528131007440000000, 490.00000000000000000000, 4.00000000000000000000, 4.00000000000000000000, 4.00000000000000000000, 4.00000000000000000000, 4.00000000000000000000, 2.00000000000000000000, 0.00000000000000000000, 0.00000000000000000000, 4.00000000000000000000, 4.00000000000000000000, 4.00000000000000000000, 4.00000000000000000000, 4.00000000000000000000, 4.00000000000000000000, 4.00000000000000000000, 4.00000000000000000000, 1666.00000000000000000000, 1688.00000000000000000000, 0.00000000000000000000
77.00000000000000000000, 0.00000000000000000000, 4032.30759370491840000000, 4718.97424358039640000000, 4247.69220382269300000000, 4641.53834803805330000000, 4241.02553731904750000000, 4553.84604249010230000000, 4278.46143383951860000000, 4298.97425385073530000000, 4490.76912095561060000000, 4862.05116315863320000000, 4409.74348191130500000000, 4158.97425727418160000000, 4399.99989240597730000000, 4232.30758881428120000000, 454.00000000000000000000, 4.00000000000000000000, 4.00000000000000000000, 4.00000000000000000000, 4.00000000000000000000, 4.00000000000000000000, 2.00000000000000000000, 0.00000000000000000000, 0.00000000000000000000, 4.00000000000000000000, 4.00000000000000000000, 4.00000000000000000000, 4.00000000000000000000, 4.00000000000000000000, 4.00000000000000000000, 4.00000000000000000000, 4.00000000000000000000, 1665.00000000000000000000, 1688.00000000000000000000, 0.00000000000000000000
78.00000000000000000000, 0.00000000000000000000, 4033.84605520575950000000, 4720.51270508123800000000, 4247.17938332241280000000, 4643.07680953889480000000, 4239.99989631848710000000, 4553.84604249010230000000, 4276.41015183839680000000, 4299.99989485129570000000, 4491.28194145589170000000, 4863.58962465947390000000, 4401.02553340653780000000, 4154.87169327193810000000, 4399.99989240597730000000, 4227.69220431175750000000, 501.00000000000000000000, 4.00000000000000000000, 4.00000000000000000000, 4.00000000000000000000, 4.00000000000000000000, 4.00000000000000000000, 2.00000000000000000000, 0.00000000000000000000, 0.00000000000000000000, 4.00000000000000000000, 4.00000000000000000000, 4.00000000000000000000, 4.00000000000000000000, 4.00000000000000000000, 4.00000000000000000000, 4.00000000000000000000, 4.00000000000000000000, 1665.00000000000000000000, 1689.00000000000000000000, 0.00000000000000000000
79.00000000000000000000, 0.00000000000000000000, 4026.66656820183380000000, 4719.48706408067660000000, 4242.56399881988910000000, 4640.51270703749290000000, 4247.69220382269300000000, 4553.84604249010230000000, 4275.38451083783550000000, 4295.89733084905220000000, 4483.07681345140460000000, 4858.46141965666990000000, 4385.12809789784480000000, 4149.74348826913410000000, 4395.89732840373380000000, 4221.02553780811190000000, 460.00000000000000000000, 4.00000000000000000000, 4.00000000000000000000, 4.00000000000000000000, 4.00000000000000000000, 4.00000000000000000000, 2.00000000000000000000, 0.00000000000000000000, 0.00000000000000000000, 4.00000000000000000000, 4.00000000000000000000, 4.00000000000000000000, 4.00000000000000000000, 4.00000000000000000000, 4.00000000000000000000, 4.00000000000000000000, 4.00000000000000000000, 1666.00000000000000000000, 1687.00000000000000000000, 0.00000000000000000000
80.00000000000000000000, 0.00000000000000000000, 4019.48708119790760000000, 4712.82039757703110000000, 4240.51271681876730000000, 4634.87168153440780000000, 4251.28194732465640000000, 4551.28193998870030000000, 4275.89733133811660000000, 4296.92297184961350000000, 4477.43578794832050000000, 4856.92295815582840000000, 4392.30758490177050000000, 4148.71784726857280000000, 4396.41014890401400000000, 4220.51271730783080000000, 490.00000000000000000000, 4.00000000000000000000, 4.00000000000000000000, 4.00000000000000000000, 4.00000000000000000000, 4.00000000000000000000, 2.00000000000000000000, 0.00000000000000000000, 0.00000000000000000000, 4.00000000000000000000, 4.00000000000000000000, 4.00000000000000000000, 4.00000000000000000000, 4.00000000000000000000, 4.00000000000000000000, 4.00000000000000000000, 4.00000000000000000000, 1665.00000000000000000000, 1688.00000000000000000000, 0.00000000000000000000
81.00000000000000000000, 0.00000000000000000000, 4020.51272219846850000000, 4707.69219257422720000000, 4242.05117831960890000000, 4631.79475853272560000000, 4246.15374232185240000000, 4552.30758098926070000000, 4275.89733133811660000000, 4299.48707435101550000000, 4477.94860844860070000000, 4856.92295815582840000000, 4404.10245640822090000000, 4145.64092426689060000000, 4393.33322590233180000000, 4217.94861480642880000000, 454.00000000000000000000, 4.00000000000000000000, 4.00000000000000000000, 4.00000000000000000000, 4.00000000000000000000, 4.00000000000000000000, 2.00000000000000000000, 0.00000000000000000000, 0.00000000000000000000, 4.00000000000000000000, 4.00000000000000000000, 4.00000000000000000000, 4.00000000000000000000, 4.00000000000000000000, 4.00000000000000000000, 4.00000000000000000000, 4.00000000000000000000, 1666.00000000000000000000, 1687.00000000000000000000, 0.00000000000000000000
82.00000000000000000000, 0.00000000000000000000, 4018.97426069762740000000, 4706.66655157366680000000, 4237.43579381708510000000, 4633.84604053384740000000, 4243.07681932016930000000, 4553.84604249010230000000, 4275.38451083783550000000, 4296.92297184961350000000, 4478.46142894888090000000, 4848.71783015134220000000, 4393.84604640261200000000, 4138.97425776324510000000, 4386.66655939868630000000, 4210.25630730222290000000, 501.00000000000000000000, 4.00000000000000000000, 4.00000000000000000000, 4.00000000000000000000, 4.00000000000000000000, 4.00000000000000000000, 2.00000000000000000000, 0.00000000000000000000, 0.00000000000000000000, 4.00000000000000000000, 4.00000000000000000000, 4.00000000000000000000, 4.00000000000000000000, 4.00000000000000000000, 4.00000000000000000000, 4.00000000000000000000, 4.00000000000000000000, 1665.00000000000000000000, 1687.00000000000000000000, 0.00000000000000000000
83.00000000000000000000, 0.00000000000000000000, 4012.82041469426260000000, 4705.12809007282520000000, 4230.76912731343960000000, 4632.82039953328600000000, 4244.61528082101090000000, 4552.30758098926070000000, 4276.41015183839680000000, 4296.41015134933330000000, 4476.92296744803930000000, 4840.51270214685520000000, 4381.53835439588240000000, 4135.89733476156290000000, 4381.53835439588240000000, 4204.61528179913880000000, 460.00000000000000000000, 4.00000000000000000000, 4.00000000000000000000, 4.00000000000000000000, 4.00000000000000000000, 4.00000000000000000000, 2.00000000000000000000, 0.00000000000000000000, 0.00000000000000000000, 4.00000000000000000000, 4.00000000000000000000, 4.00000000000000000000, 4.00000000000000000000, 4.00000000000000000000, 4.00000000000000000000, 4.00000000000000000000, 4.00000000000000000000, 1665.00000000000000000000, 1687.00000000000000000000, 0.00000000000000000000
84.00000000000000000000, 0.00000000000000000000, 4014.35887619510370000000, 4705.12809007282520000000, 4232.30758881428120000000, 4631.79475853272560000000, 4244.61528082101090000000, 4551.79476048898050000000, 4276.92297233867700000000, 4297.94861285017400000000, 4475.89732644747890000000, 4842.05116364769670000000, 4387.69220039924680000000, 4143.07682176548860000000, 4383.58963639700410000000, 4211.28194830278330000000, 490.00000000000000000000, 4.00000000000000000000, 4.00000000000000000000, 4.00000000000000000000, 4.00000000000000000000, 4.00000000000000000000, 2.00000000000000000000, 0.00000000000000000000, 0.00000000000000000000, 4.00000000000000000000, 4.00000000000000000000, 4.00000000000000000000, 4.00000000000000000000, 4.00000000000000000000, 4.00000000000000000000, 4.00000000000000000000, 4.00000000000000000000, 1666.00000000000000000000, 1686.00000000000000000000, 0.00000000000000000000
85.00000000000000000000, 0.00000000000000000000, 4022.05118369931010000000, 4708.20501307450740000000, 4237.94861431736540000000, 4633.84604053384740000000, 4244.10246032073060000000, 4551.79476048898050000000, 4275.38451083783550000000, 4297.43579234989370000000, 4482.05117245084420000000, 4844.61526614909870000000, 4394.87168740317340000000, 4146.66656526745100000000, 4386.15373889840610000000, 4218.97425580699020000000, 454.00000000000000000000, 4.00000000000000000000, 4.00000000000000000000, 4.00000000000000000000, 4.00000000000000000000, 4.00000000000000000000, 2.00000000000000000000, 0.00000000000000000000, 0.00000000000000000000, 4.00000000000000000000, 4.00000000000000000000, 4.00000000000000000000, 4.00000000000000000000, 4.00000000000000000000, 4.00000000000000000000, 4.00000000000000000000, 4.00000000000000000000, 1667.00000000000000000000, 1686.00000000000000000000, 0.00000000000000000000
86.00000000000000000000, 0.00000000000000000000, 4020.51272219846850000000, 4705.64091057310540000000, 4238.97425531792670000000, 4632.30757903300580000000, 4244.10246032073060000000, 4553.33322198982210000000, 4272.82040833643350000000, 4296.92297184961350000000, 4488.20501845420860000000, 4844.61526614909870000000, 4384.10245689728440000000, 4139.48707826352530000000, 4382.05117489616260000000, 4215.89733280530710000000, 501.00000000000000000000, 4.00000000000000000000, 4.00000000000000000000, 4.00000000000000000000, 4.00000000000000000000, 4.00000000000000000000, 2.00000000000000000000, 0.00000000000000000000, 0.00000000000000000000, 4.00000000000000000000, 4.00000000000000000000, 4.00000000000000000000, 4.00000000000000000000, 4.00000000000000000000, 4.00000000000000000000, 4.00000000000000000000, 4.00000000000000000000, 1666.00000000000000000000, 1687.00000000000000000000, 0.00000000000000000000
87.00000000000000000000, 0.00000000000000000000, 4015.38451719566460000000, 4697.94860306889950000000, 4239.99989631848710000000, 4627.17937403020190000000, 4245.64092182157130000000, 4557.94860649234580000000, 4271.79476733587310000000, 4295.38451034877200000000, 4490.25630045533030000000, 4844.10244564881850000000, 4376.92296989335860000000, 4139.48707826352530000000, 4376.41014939307840000000, 4211.28194830278330000000, 460.00000000000000000000, 4.00000000000000000000, 4.00000000000000000000, 4.00000000000000000000, 4.00000000000000000000, 4.00000000000000000000, 2.00000000000000000000, 0.00000000000000000000, 0.00000000000000000000, 4.00000000000000000000, 4.00000000000000000000, 4.00000000000000000000, 4.00000000000000000000, 4.00000000000000000000, 4.00000000000000000000, 4.00000000000000000000, 4.00000000000000000000, 1667.00000000000000000000, 1686.00000000000000000000, 0.00000000000000000000
88.00000000000000000000, 0.00000000000000000000, 4017.94861969706650000000, 4695.89732106777770000000, 4241.53835781932870000000, 4626.15373302964140000000, 4246.15374232185240000000, 4553.84604249010230000000, 4273.33322883671460000000, 4292.82040784737000000000, 4489.23065945476990000000, 4846.15372764994030000000, 4387.17937989896650000000, 4145.12810376661040000000, 4377.43579039363890000000, 4216.41015330558820000000, 490.00000000000000000000, 4.00000000000000000000, 4.00000000000000000000, 4.00000000000000000000, 4.00000000000000000000, 4.00000000000000000000, 2.00000000000000000000, 0.00000000000000000000, 0.00000000000000000000, 4.00000000000000000000, 4.00000000000000000000, 4.00000000000000000000, 4.00000000000000000000, 4.00000000000000000000, 4.00000000000000000000, 4.00000000000000000000, 4.00000000000000000000, 1667.00000000000000000000, 1686.00000000000000000000, 0.00000000000000000000
89.00000000000000000000, 0.00000000000000000000, 4021.53836319902940000000, 4702.56398757142320000000, 4238.46143481764560000000, 4631.79475853272560000000, 4245.12810132129110000000, 4546.15373498589630000000, 4273.84604933699480000000, 4297.43579234989370000000, 4489.23065945476990000000, 4854.35885565442640000000, 4393.33322590233180000000, 4146.15374476717080000000, 4381.02553389560220000000, 4218.97425580699020000000, 454.00000000000000000000, 4.00000000000000000000, 4.00000000000000000000, 4.00000000000000000000, 4.00000000000000000000, 4.00000000000000000000, 2.00000000000000000000, 0.00000000000000000000, 0.00000000000000000000, 4.00000000000000000000, 4.00000000000000000000, 4.00000000000000000000, 4.00000000000000000000, 4.00000000000000000000, 4.00000000000000000000, 4.00000000000000000000, 4.00000000000000000000, 1666.00000000000000000000, 1688.00000000000000000000, 0.00000000000000000000
90.00000000000000000000, 0.00000000000000000000, 4024.10246570043140000000, 4713.33321807731230000000, 4237.94861431736540000000, 4637.43578403580980000000, 4246.66656282213260000000, 4548.20501698701810000000, 4274.35886983727510000000, 4299.99989485129570000000, 4492.30758245645210000000, 4854.87167615470660000000, 4387.17937989896650000000, 4147.69220626801230000000, 4382.05117489616260000000, 4216.41015330558820000000, 501.00000000000000000000, 4.00000000000000000000, 4.00000000000000000000, 4.00000000000000000000, 4.00000000000000000000, 4.00000000000000000000, 2.00000000000000000000, 0.00000000000000000000, 0.00000000000000000000, 4.00000000000000000000, 4.00000000000000000000, 4.00000000000000000000, 4.00000000000000000000, 4.00000000000000000000, 4.00000000000000000000, 4.00000000000000000000, 4.00000000000000000000, 1668.00000000000000000000, 1687.00000000000000000000, 0.00000000000000000000
91.00000000000000000000, 0.00000000000000000000, 4025.64092720127290000000, 4715.38450007843400000000, 4238.97425531792670000000, 4635.89732253496910000000, 4249.23066532353460000000, 4554.35886299038250000000, 4275.89733133811660000000, 4296.41015134933330000000, 4489.23065945476990000000, 4844.61526614909870000000, 4384.61527739756460000000, 4145.64092426689060000000, 4382.56399539644280000000, 4216.41015330558820000000, 460.00000000000000000000, 4.00000000000000000000, 4.00000000000000000000, 4.00000000000000000000, 4.00000000000000000000, 4.00000000000000000000, 2.00000000000000000000, 0.00000000000000000000, 0.00000000000000000000, 4.00000000000000000000, 4.00000000000000000000, 4.00000000000000000000, 4.00000000000000000000, 4.00000000000000000000, 4.00000000000000000000, 4.00000000000000000000, 4.00000000000000000000, 1667.00000000000000000000, 1689.00000000000000000000, 0.00000000000000000000
92.00000000000000000000, 0.00000000000000000000, 4020.51272219846850000000, 4709.74347457534900000000, 4234.87169131568320000000, 4632.30757903300580000000, 4249.23066532353460000000, 4554.35886299038250000000, 4274.35886983727510000000, 4294.87168984849180000000, 4478.97424944916110000000, 4842.56398414797700000000, 4388.20502089952790000000, 4138.46143726296490000000, 4381.53835439588240000000, 4215.38451230502690000000, 490.00000000000000000000, 4.00000000000000000000, 4.00000000000000000000, 4.00000000000000000000, 4.00000000000000000000, 4.00000000000000000000, 2.00000000000000000000, 0.00000000000000000000, 0.00000000000000000000, 4.00000000000000000000, 4.00000000000000000000, 4.00000000000000000000, 4.00000000000000000000, 4.00000000000000000000, 4.00000000000000000000, 4.00000000000000000000, 4.00000000000000000000, 1668.00000000000000000000, 1688.00000000000000000000, 0.00000000000000000000
93.00000000000000000000, 0.00000000000000000000, 4015.38451719566460000000, 4708.20501307450740000000, 4231.79476831400010000000, 4633.84604053384740000000, 4248.20502432297420000000, 4552.30758098926070000000, 4273.33322883671460000000, 4296.92297184961350000000, 4478.97424944916110000000, 4847.17936865050070000000, 4382.56399539644280000000, 4135.38451426128180000000, 4381.02553389560220000000, 4208.20502530110120000000, 454.00000000000000000000, 4.00000000000000000000, 4.00000000000000000000, 4.00000000000000000000, 4.00000000000000000000, 4.00000000000000000000, 2.00000000000000000000, 0.00000000000000000000, 0.00000000000000000000, 4.00000000000000000000, 4.00000000000000000000, 4.00000000000000000000, 4.00000000000000000000, 4.00000000000000000000, 4.00000000000000000000, 4.00000000000000000000, 4.00000000000000000000, 1668.00000000000000000000, 1688.00000000000000000000, 0.00000000000000000000
