title:10clenches                                                                      , recorded:10.11.13 21.12.46, sampling:128, subject:anthony                                                                         , labels:COUNTER INTERPOLATED AF3 F7 F3 FC5 T7 P7 O1 O2 P8 T8 FC6 F4 F8 AF4 RAW_CQ CQ_AF3 CQ_F7 CQ_F3 CQ_FC5 CQ_T7 CQ_P7 CQ_O1 CQ_O2 CQ_P8 CQ_T8 CQ_FC6 CQ_F4 CQ_F8 CQ_AF4 CQ_CMS CQ_DRL GYROX GYROY MARKER, chan:36, units:emotiv
19.00000000000000000000, 0.00000000000000000000, 4098.97425874137210000000, 4729.74347408628550000000, 4234.87169131568320000000, 4617.94860502515440000000, 4297.43579234989370000000, 4794.35885712161780000000, 4291.79476684680960000000, 4310.25630485690450000000, 4520.51270997187480000000, 4890.25629067405590000000, 4477.94860844860070000000, 4217.43579430614860000000, 4568.20501649795370000000, 4368.71784188887160000000, 0.00000000000000000000, 4.00000000000000000000, 4.00000000000000000000, 4.00000000000000000000, 4.00000000000000000000, 4.00000000000000000000, 4.00000000000000000000, 4.00000000000000000000, 4.00000000000000000000, 4.00000000000000000000, 4.00000000000000000000, 4.00000000000000000000, 4.00000000000000000000, 4.00000000000000000000, 4.00000000000000000000, 4.00000000000000000000, 4.00000000000000000000, 1657.00000000000000000000, 1683.00000000000000000000, 0.00000000000000000000
20.00000000000000000000, 0.00000000000000000000, 4090.76913073688590000000, 4716.92296157927470000000, 4233.84605031512180000000, 4612.30757952207020000000, 4293.84604884793040000000, 4794.87167762189800000000, 4285.64092084344430000000, 4311.79476635774520000000, 4519.48706897131430000000, 4886.66654717209260000000, 4474.35886494663740000000, 4214.87169180474670000000, 4559.48706799318640000000, 4366.15373938746960000000, 0.00000000000000000000, 4.00000000000000000000, 4.00000000000000000000, 4.00000000000000000000, 4.00000000000000000000, 4.00000000000000000000, 4.00000000000000000000, 4.00000000000000000000, 4.00000000000000000000, 4.00000000000000000000, 4.00000000000000000000, 4.00000000000000000000, 4.00000000000000000000, 4.00000000000000000000, 4.00000000000000000000, 4.00000000000000000000, 4.00000000000000000000, 1654.00000000000000000000, 1682.00000000000000000000, 0.00000000000000000000
21.00000000000000000000, 0.00000000000000000000, 4094.87169473912900000000, 4715.38450007843400000000, 4235.38451181596340000000, 4609.74347702066730000000, 4296.92297184961350000000, 4792.82039562077630000000, 4278.46143383951860000000, 4307.17938185522140000000, 4512.30758196738860000000, 4878.46141916760640000000, 4463.58963444074930000000, 4211.28194830278330000000, 4554.87168349066270000000, 4362.05117538522610000000, 0.00000000000000000000, 4.00000000000000000000, 4.00000000000000000000, 4.00000000000000000000, 4.00000000000000000000, 4.00000000000000000000, 4.00000000000000000000, 4.00000000000000000000, 4.00000000000000000000, 4.00000000000000000000, 4.00000000000000000000, 4.00000000000000000000, 4.00000000000000000000, 4.00000000000000000000, 4.00000000000000000000, 4.00000000000000000000, 4.00000000000000000000, 1655.00000000000000000000, 1682.00000000000000000000, 0.00000000000000000000
22.00000000000000000000, 0.00000000000000000000, 4092.30759223772700000000, 4715.38450007843400000000, 4232.30758881428120000000, 4607.17937451926540000000, 4295.38451034877200000000, 4799.48706212442180000000, 4275.89733133811660000000, 4293.84604884793040000000, 4498.46142845981740000000, 4867.17936816143720000000, 4455.89732693654240000000, 4201.02553829717540000000, 4543.58963248449440000000, 4354.87168838130040000000, 0.00000000000000000000, 4.00000000000000000000, 4.00000000000000000000, 4.00000000000000000000, 4.00000000000000000000, 4.00000000000000000000, 4.00000000000000000000, 4.00000000000000000000, 4.00000000000000000000, 4.00000000000000000000, 4.00000000000000000000, 4.00000000000000000000, 4.00000000000000000000, 4.00000000000000000000, 4.00000000000000000000, 4.00000000000000000000, 4.00000000000000000000, 1653.00000000000000000000, 1681.00000000000000000000, 0.00000000000000000000
23.00000000000000000000, 0.00000000000000000000, 4077.43579772959490000000, 4707.69219257422720000000, 4221.02553780811190000000, 4603.58963101730300000000, 4295.38451034877200000000, 4817.43577963423650000000, 4278.46143383951860000000, 4290.25630534596800000000, 4493.33322345701340000000, 4859.99988115751150000000, 4452.82040393486020000000, 4190.76912829156750000000, 4535.89732498028750000000, 4345.12809887597270000000, 0.00000000000000000000, 4.00000000000000000000, 4.00000000000000000000, 4.00000000000000000000, 4.00000000000000000000, 4.00000000000000000000, 4.00000000000000000000, 4.00000000000000000000, 4.00000000000000000000, 4.00000000000000000000, 4.00000000000000000000, 4.00000000000000000000, 4.00000000000000000000, 4.00000000000000000000, 4.00000000000000000000, 4.00000000000000000000, 4.00000000000000000000, 1653.00000000000000000000, 1681.00000000000000000000, 0.00000000000000000000
24.00000000000000000000, 0.00000000000000000000, 4065.64092622314550000000, 4707.17937207394700000000, 4212.30758930334470000000, 4605.12809251814360000000, 4303.58963835325900000000, 4830.76911264152750000000, 4281.02553634092060000000, 4296.92297184961350000000, 4501.53835146149960000000, 4862.56398365891350000000, 4449.23066043289690000000, 4184.10246178792200000000, 4532.82040197860530000000, 4335.89732987092520000000, 0.00000000000000000000, 4.00000000000000000000, 4.00000000000000000000, 4.00000000000000000000, 4.00000000000000000000, 4.00000000000000000000, 4.00000000000000000000, 4.00000000000000000000, 4.00000000000000000000, 4.00000000000000000000, 4.00000000000000000000, 4.00000000000000000000, 4.00000000000000000000, 4.00000000000000000000, 4.00000000000000000000, 4.00000000000000000000, 4.00000000000000000000, 1651.00000000000000000000, 1681.00000000000000000000, 0.00000000000000000000
25.00000000000000000000, 0.00000000000000000000, 4062.56400322146280000000, 4716.41014107899450000000, 4203.58964079857740000000, 4608.71783602010690000000, 4306.66656135494120000000, 4829.74347164096620000000, 4281.53835684120080000000, 4290.76912584624820000000, 4497.94860795953720000000, 4863.58962465947390000000, 4444.10245543009300000000, 4174.87169278287460000000, 4526.15373547495980000000, 4324.61527886475600000000, 0.00000000000000000000, 4.00000000000000000000, 4.00000000000000000000, 4.00000000000000000000, 4.00000000000000000000, 4.00000000000000000000, 4.00000000000000000000, 4.00000000000000000000, 4.00000000000000000000, 4.00000000000000000000, 4.00000000000000000000, 4.00000000000000000000, 4.00000000000000000000, 4.00000000000000000000, 4.00000000000000000000, 4.00000000000000000000, 4.00000000000000000000, 1652.00000000000000000000, 1682.00000000000000000000, 0.00000000000000000000
26.00000000000000000000, 0.00000000000000000000, 4059.48708021978020000000, 4716.41014107899450000000, 4195.89733329437150000000, 4604.10245151758320000000, 4299.48707435101550000000, 4825.64090763872350000000, 4279.48707484007900000000, 4278.46143383951860000000, 4484.61527495224620000000, 4858.97424015695010000000, 4441.02553242841080000000, 4165.64092377782710000000, 4522.56399197299650000000, 4313.33322785858670000000, 0.00000000000000000000, 4.00000000000000000000, 4.00000000000000000000, 4.00000000000000000000, 4.00000000000000000000, 4.00000000000000000000, 4.00000000000000000000, 4.00000000000000000000, 4.00000000000000000000, 4.00000000000000000000, 4.00000000000000000000, 4.00000000000000000000, 4.00000000000000000000, 4.00000000000000000000, 4.00000000000000000000, 4.00000000000000000000, 4.00000000000000000000, 1651.00000000000000000000, 1681.00000000000000000000, 0.00000000000000000000
27.00000000000000000000, 0.00000000000000000000, 4056.41015721809800000000, 4713.84603857759250000000, 4198.97425629605370000000, 4597.43578501393770000000, 4295.89733084905220000000, 4826.66654863928400000000, 4278.97425433979880000000, 4283.07681834204230000000, 4486.15373645308680000000, 4857.43577865610950000000, 4439.99989142784940000000, 4165.12810327754600000000, 4522.05117147271630000000, 4314.87168935942830000000, 0.00000000000000000000, 4.00000000000000000000, 4.00000000000000000000, 4.00000000000000000000, 4.00000000000000000000, 4.00000000000000000000, 4.00000000000000000000, 4.00000000000000000000, 4.00000000000000000000, 4.00000000000000000000, 4.00000000000000000000, 4.00000000000000000000, 4.00000000000000000000, 4.00000000000000000000, 4.00000000000000000000, 4.00000000000000000000, 4.00000000000000000000, 1651.00000000000000000000, 1683.00000000000000000000, 0.00000000000000000000
28.00000000000000000000, 0.00000000000000000000, 4059.99990072006090000000, 4724.10244858320040000000, 4202.05117929773590000000, 4603.07681051702180000000, 4297.94861285017400000000, 4827.17936913956420000000, 4281.02553634092060000000, 4294.35886934821160000000, 4495.89732595841540000000, 4859.48706065723040000000, 4441.53835292869100000000, 4168.20502627922910000000, 4522.05117147271630000000, 4317.43579186083020000000, 0.00000000000000000000, 4.00000000000000000000, 4.00000000000000000000, 4.00000000000000000000, 4.00000000000000000000, 4.00000000000000000000, 4.00000000000000000000, 4.00000000000000000000, 4.00000000000000000000, 4.00000000000000000000, 4.00000000000000000000, 4.00000000000000000000, 4.00000000000000000000, 4.00000000000000000000, 4.00000000000000000000, 4.00000000000000000000, 4.00000000000000000000, 1651.00000000000000000000, 1682.00000000000000000000, 0.00000000000000000000
29.00000000000000000000, 0.00000000000000000000, 4065.12810572286480000000, 4735.38449958936960000000, 4199.48707679633390000000, 4610.25629752094850000000, 4298.46143335045510000000, 4821.02552313619980000000, 4281.53835684120080000000, 4294.35886934821160000000, 4496.41014645869560000000, 4857.94859915638970000000, 4443.58963492981270000000, 4164.61528277726570000000, 4522.56399197299650000000, 4311.79476635774520000000, 0.00000000000000000000, 4.00000000000000000000, 4.00000000000000000000, 4.00000000000000000000, 4.00000000000000000000, 4.00000000000000000000, 4.00000000000000000000, 4.00000000000000000000, 4.00000000000000000000, 4.00000000000000000000, 4.00000000000000000000, 4.00000000000000000000, 4.00000000000000000000, 4.00000000000000000000, 4.00000000000000000000, 4.00000000000000000000, 4.00000000000000000000, 1650.00000000000000000000, 1684.00000000000000000000, 0.00000000000000000000
30.00000000000000000000, 0.00000000000000000000, 4066.15374672342570000000, 4734.35885858880920000000, 4206.15374329997940000000, 4610.76911802122870000000, 4295.38451034877200000000, 4813.33321563199300000000, 4284.61527984288300000000, 4293.84604884793040000000, 4493.84604395729370000000, 4858.97424015695010000000, 4443.07681442953250000000, 4169.74348778006970000000, 4522.56399197299650000000, 4320.51271486251240000000, 0.00000000000000000000, 4.00000000000000000000, 4.00000000000000000000, 4.00000000000000000000, 4.00000000000000000000, 4.00000000000000000000, 4.00000000000000000000, 4.00000000000000000000, 4.00000000000000000000, 4.00000000000000000000, 4.00000000000000000000, 4.00000000000000000000, 4.00000000000000000000, 4.00000000000000000000, 4.00000000000000000000, 4.00000000000000000000, 4.00000000000000000000, 1651.00000000000000000000, 1683.00000000000000000000, 0.00000000000000000000
31.00000000000000000000, 0.00000000000000000000, 4070.25631072566920000000, 4730.25629458656570000000, 4215.38451230502690000000, 4614.87168202347220000000, 4293.33322834765020000000, 4815.89731813339490000000, 4289.74348484568780000000, 4297.43579234989370000000, 4493.33322345701340000000, 4859.48706065723040000000, 4448.20501943233650000000, 4182.05117978680030000000, 4523.58963297355790000000, 4335.89732987092520000000, 0.00000000000000000000, 4.00000000000000000000, 4.00000000000000000000, 4.00000000000000000000, 4.00000000000000000000, 4.00000000000000000000, 4.00000000000000000000, 4.00000000000000000000, 4.00000000000000000000, 4.00000000000000000000, 4.00000000000000000000, 4.00000000000000000000, 4.00000000000000000000, 4.00000000000000000000, 4.00000000000000000000, 4.00000000000000000000, 4.00000000000000000000, 1650.00000000000000000000, 1684.00000000000000000000, 0.00000000000000000000
32.00000000000000000000, 0.00000000000000000000, 4076.92297722931470000000, 4733.33321758824790000000, 4219.48707630727040000000, 4617.94860502515440000000, 4295.89733084905220000000, 4825.64090763872350000000, 4292.30758734708980000000, 4296.92297184961350000000, 4496.92296695897580000000, 4863.07680415919370000000, 4457.94860893766420000000, 4189.74348729100620000000, 4533.33322247888550000000, 4335.89732987092520000000, 0.00000000000000000000, 4.00000000000000000000, 4.00000000000000000000, 4.00000000000000000000, 4.00000000000000000000, 4.00000000000000000000, 4.00000000000000000000, 4.00000000000000000000, 4.00000000000000000000, 4.00000000000000000000, 4.00000000000000000000, 4.00000000000000000000, 4.00000000000000000000, 4.00000000000000000000, 4.00000000000000000000, 4.00000000000000000000, 4.00000000000000000000, 1650.00000000000000000000, 1684.00000000000000000000, 0.00000000000000000000
33.00000000000000000000, 0.00000000000000000000, 4084.10246423324040000000, 4736.92296109021120000000, 4228.71784531231790000000, 4617.43578452487420000000, 4298.97425385073530000000, 4830.25629214124730000000, 4294.35886934821160000000, 4302.05117685241750000000, 4508.20501796514510000000, 4872.82039366452140000000, 4463.07681394046810000000, 4197.94861529549330000000, 4543.07681198421320000000, 4342.05117587429050000000, 0.00000000000000000000, 4.00000000000000000000, 4.00000000000000000000, 4.00000000000000000000, 4.00000000000000000000, 4.00000000000000000000, 4.00000000000000000000, 4.00000000000000000000, 4.00000000000000000000, 4.00000000000000000000, 4.00000000000000000000, 4.00000000000000000000, 4.00000000000000000000, 4.00000000000000000000, 4.00000000000000000000, 4.00000000000000000000, 4.00000000000000000000, 1649.00000000000000000000, 1685.00000000000000000000, 0.00000000000000000000
34.00000000000000000000, 0.00000000000000000000, 4085.12810523380130000000, 4731.79475608740720000000, 4231.28194781371990000000, 4615.38450252375240000000, 4298.97425385073530000000, 4829.74347164096620000000, 4297.94861285017400000000, 4311.79476635774520000000, 4516.41014596963210000000, 4878.46141916760640000000, 4461.53835243962750000000, 4201.02553829717540000000, 4543.07681198421320000000, 4352.30758587989840000000, 0.00000000000000000000, 4.00000000000000000000, 4.00000000000000000000, 4.00000000000000000000, 4.00000000000000000000, 4.00000000000000000000, 4.00000000000000000000, 4.00000000000000000000, 4.00000000000000000000, 4.00000000000000000000, 4.00000000000000000000, 4.00000000000000000000, 4.00000000000000000000, 4.00000000000000000000, 4.00000000000000000000, 4.00000000000000000000, 4.00000000000000000000, 1649.00000000000000000000, 1685.00000000000000000000, 0.00000000000000000000
35.00000000000000000000, 0.00000000000000000000, 4079.99990023099690000000, 4721.53834608179840000000, 4220.51271730783080000000, 4613.33322052263070000000, 4296.92297184961350000000, 4828.71783064040570000000, 4296.92297184961350000000, 4306.66656135494120000000, 4515.89732546935100000000, 4876.41013716648470000000, 4457.43578843738400000000, 4191.79476929212800000000, 4537.94860698140930000000, 4339.48707337288760000000, 0.00000000000000000000, 4.00000000000000000000, 4.00000000000000000000, 4.00000000000000000000, 4.00000000000000000000, 4.00000000000000000000, 4.00000000000000000000, 4.00000000000000000000, 4.00000000000000000000, 4.00000000000000000000, 4.00000000000000000000, 4.00000000000000000000, 4.00000000000000000000, 4.00000000000000000000, 4.00000000000000000000, 4.00000000000000000000, 4.00000000000000000000, 1648.00000000000000000000, 1685.00000000000000000000, 0.00000000000000000000
36.00000000000000000000, 0.00000000000000000000, 4079.99990023099690000000, 4719.48706408067660000000, 4215.89733280530710000000, 4611.28193852150890000000, 4295.89733084905220000000, 4826.66654863928400000000, 4291.79476684680960000000, 4296.92297184961350000000, 4505.12809496346290000000, 4873.33321416480160000000, 4458.46142943794440000000, 4182.56400028708050000000, 4538.46142748168950000000, 4328.20502236671840000000, 0.00000000000000000000, 4.00000000000000000000, 4.00000000000000000000, 4.00000000000000000000, 4.00000000000000000000, 4.00000000000000000000, 4.00000000000000000000, 4.00000000000000000000, 4.00000000000000000000, 4.00000000000000000000, 4.00000000000000000000, 4.00000000000000000000, 4.00000000000000000000, 4.00000000000000000000, 4.00000000000000000000, 4.00000000000000000000, 4.00000000000000000000, 1648.00000000000000000000, 1686.00000000000000000000, 0.00000000000000000000
37.00000000000000000000, 0.00000000000000000000, 4083.07682323267950000000, 4727.69219208516370000000, 4219.48707630727040000000, 4611.28193852150890000000, 4299.99989485129570000000, 4825.64090763872350000000, 4289.74348484568780000000, 4296.41015134933330000000, 4491.79476195617190000000, 4867.17936816143720000000, 4457.43578843738400000000, 4185.64092328876270000000, 4537.94860698140930000000, 4335.38450937064500000000, 0.00000000000000000000, 4.00000000000000000000, 4.00000000000000000000, 4.00000000000000000000, 4.00000000000000000000, 4.00000000000000000000, 4.00000000000000000000, 4.00000000000000000000, 4.00000000000000000000, 4.00000000000000000000, 4.00000000000000000000, 4.00000000000000000000, 4.00000000000000000000, 4.00000000000000000000, 4.00000000000000000000, 4.00000000000000000000, 4.00000000000000000000, 1648.00000000000000000000, 1686.00000000000000000000, 0.00000000000000000000
38.00000000000000000000, 0.00000000000000000000, 4078.46143873015580000000, 4729.23065358600520000000, 4217.43579430614860000000, 4611.79475902178910000000, 4303.58963835325900000000, 4828.20501014012550000000, 4287.17938234428580000000, 4296.41015134933330000000, 4489.74347995505010000000, 4862.05116315863320000000, 4448.20501943233650000000, 4187.69220528988440000000, 4529.23065847664200000000, 4332.82040686924300000000, 0.00000000000000000000, 4.00000000000000000000, 4.00000000000000000000, 4.00000000000000000000, 4.00000000000000000000, 4.00000000000000000000, 4.00000000000000000000, 4.00000000000000000000, 4.00000000000000000000, 4.00000000000000000000, 4.00000000000000000000, 4.00000000000000000000, 4.00000000000000000000, 4.00000000000000000000, 4.00000000000000000000, 4.00000000000000000000, 4.00000000000000000000, 1648.00000000000000000000, 1688.00000000000000000000, 0.00000000000000000000
39.00000000000000000000, 0.00000000000000000000, 4073.33323372735140000000, 4722.05116658207860000000, 4215.38451230502690000000, 4607.69219501954650000000, 4299.48707435101550000000, 4826.15372813900380000000, 4282.05117734148100000000, 4290.76912584624820000000, 4488.20501845420860000000, 4858.97424015695010000000, 4441.02553242841080000000, 4177.43579528427650000000, 4522.05117147271630000000, 4325.12809936503620000000, 0.00000000000000000000, 4.00000000000000000000, 4.00000000000000000000, 4.00000000000000000000, 4.00000000000000000000, 4.00000000000000000000, 4.00000000000000000000, 4.00000000000000000000, 4.00000000000000000000, 4.00000000000000000000, 4.00000000000000000000, 4.00000000000000000000, 4.00000000000000000000, 4.00000000000000000000, 4.00000000000000000000, 4.00000000000000000000, 4.00000000000000000000, 1648.00000000000000000000, 1686.00000000000000000000, 0.00000000000000000000
40.00000000000000000000, 0.00000000000000000000, 4075.38451572847320000000, 4722.05116658207860000000, 4218.97425580699020000000, 4606.66655401898520000000, 4294.87168984849180000000, 4816.92295913395630000000, 4278.46143383951860000000, 4288.20502334484630000000, 4477.43578794832050000000, 4850.25629165218290000000, 4443.58963492981270000000, 4168.71784677950930000000, 4523.58963297355790000000, 4326.66656086587770000000, 0.00000000000000000000, 4.00000000000000000000, 4.00000000000000000000, 4.00000000000000000000, 4.00000000000000000000, 4.00000000000000000000, 4.00000000000000000000, 4.00000000000000000000, 4.00000000000000000000, 4.00000000000000000000, 4.00000000000000000000, 4.00000000000000000000, 4.00000000000000000000, 4.00000000000000000000, 4.00000000000000000000, 4.00000000000000000000, 4.00000000000000000000, 1646.00000000000000000000, 1689.00000000000000000000, 0.00000000000000000000
41.00000000000000000000, 0.00000000000000000000, 4076.41015672903400000000, 4731.79475608740720000000, 4217.94861480642880000000, 4613.84604102291090000000, 4300.51271535157590000000, 4814.35885663255430000000, 4279.48707484007900000000, 4293.33322834765020000000, 4476.41014694775910000000, 4847.69218915078090000000, 4444.61527593037320000000, 4170.25630828035080000000, 4523.58963297355790000000, 4328.20502236671840000000, 0.00000000000000000000, 4.00000000000000000000, 4.00000000000000000000, 4.00000000000000000000, 4.00000000000000000000, 4.00000000000000000000, 4.00000000000000000000, 4.00000000000000000000, 4.00000000000000000000, 4.00000000000000000000, 4.00000000000000000000, 4.00000000000000000000, 4.00000000000000000000, 4.00000000000000000000, 4.00000000000000000000, 4.00000000000000000000, 4.00000000000000000000, 1649.00000000000000000000, 1687.00000000000000000000, 0.00000000000000000000
42.00000000000000000000, 0.00000000000000000000, 4075.38451572847320000000, 4740.51270459217360000000, 4215.89733280530710000000, 4619.48706652599590000000, 4304.61527935381950000000, 4817.94860013451670000000, 4279.99989534035920000000, 4296.41015134933330000000, 4487.17937745364820000000, 4857.94859915638970000000, 4441.02553242841080000000, 4176.41015428371520000000, 4519.99988947159450000000, 4328.20502236671840000000, 0.00000000000000000000, 4.00000000000000000000, 4.00000000000000000000, 4.00000000000000000000, 4.00000000000000000000, 4.00000000000000000000, 4.00000000000000000000, 4.00000000000000000000, 4.00000000000000000000, 4.00000000000000000000, 4.00000000000000000000, 4.00000000000000000000, 4.00000000000000000000, 4.00000000000000000000, 4.00000000000000000000, 4.00000000000000000000, 4.00000000000000000000, 1647.00000000000000000000, 1688.00000000000000000000, 0.00000000000000000000
43.00000000000000000000, 0.00000000000000000000, 4075.38451572847320000000, 4741.02552509245470000000, 4215.38451230502690000000, 4618.46142552543460000000, 4304.61527935381950000000, 4818.46142063479780000000, 4281.53835684120080000000, 4294.87168984849180000000, 4493.33322345701340000000, 4862.05116315863320000000, 4446.66655793149490000000, 4179.48707728539830000000, 4526.15373547495980000000, 4334.87168887036390000000, 0.00000000000000000000, 4.00000000000000000000, 4.00000000000000000000, 4.00000000000000000000, 4.00000000000000000000, 4.00000000000000000000, 4.00000000000000000000, 4.00000000000000000000, 4.00000000000000000000, 4.00000000000000000000, 4.00000000000000000000, 4.00000000000000000000, 4.00000000000000000000, 4.00000000000000000000, 4.00000000000000000000, 4.00000000000000000000, 4.00000000000000000000, 1648.00000000000000000000, 1688.00000000000000000000, 0.00000000000000000000
44.00000000000000000000, 0.00000000000000000000, 4076.41015672903400000000, 4744.10244809413690000000, 4216.41015330558820000000, 4618.46142552543460000000, 4304.10245885353920000000, 4816.92295913395630000000, 4289.74348484568780000000, 4299.48707435101550000000, 4494.87168495785410000000, 4860.51270165779170000000, 4458.97424993822550000000, 4184.10246178792200000000, 4537.94860698140930000000, 4340.51271437344890000000, 0.00000000000000000000, 4.00000000000000000000, 4.00000000000000000000, 4.00000000000000000000, 4.00000000000000000000, 4.00000000000000000000, 4.00000000000000000000, 4.00000000000000000000, 4.00000000000000000000, 4.00000000000000000000, 4.00000000000000000000, 4.00000000000000000000, 4.00000000000000000000, 4.00000000000000000000, 4.00000000000000000000, 4.00000000000000000000, 4.00000000000000000000, 1648.00000000000000000000, 1688.00000000000000000000, 0.00000000000000000000
45.00000000000000000000, 0.00000000000000000000, 4077.43579772959490000000, 4747.17937109581910000000, 4217.94861480642880000000, 4619.48706652599590000000, 4300.51271535157590000000, 4815.89731813339490000000, 4289.74348484568780000000, 4303.07681785297880000000, 4496.41014645869560000000, 4863.58962465947390000000, 4457.94860893766420000000, 4183.58964128764090000000, 4537.43578648112910000000, 4329.74348386755990000000, 0.00000000000000000000, 4.00000000000000000000, 4.00000000000000000000, 4.00000000000000000000, 4.00000000000000000000, 4.00000000000000000000, 4.00000000000000000000, 4.00000000000000000000, 4.00000000000000000000, 4.00000000000000000000, 4.00000000000000000000, 4.00000000000000000000, 4.00000000000000000000, 4.00000000000000000000, 4.00000000000000000000, 4.00000000000000000000, 4.00000000000000000000, 1648.00000000000000000000, 1689.00000000000000000000, 0.00000000000000000000
46.00000000000000000000, 0.00000000000000000000, 4072.82041322707120000000, 4739.99988409189340000000, 4212.82040980362490000000, 4616.92296402459400000000, 4297.94861285017400000000, 4815.89731813339490000000, 4282.05117734148100000000, 4297.43579234989370000000, 4491.28194145589170000000, 4862.56398365891350000000, 4446.66655793149490000000, 4175.89733378343500000000, 4526.15373547495980000000, 4314.87168935942830000000, 0.00000000000000000000, 4.00000000000000000000, 4.00000000000000000000, 4.00000000000000000000, 4.00000000000000000000, 4.00000000000000000000, 4.00000000000000000000, 4.00000000000000000000, 4.00000000000000000000, 4.00000000000000000000, 4.00000000000000000000, 4.00000000000000000000, 4.00000000000000000000, 4.00000000000000000000, 4.00000000000000000000, 4.00000000000000000000, 4.00000000000000000000, 1647.00000000000000000000, 1688.00000000000000000000, 0.00000000000000000000
47.00000000000000000000, 0.00000000000000000000, 4062.05118272118260000000, 4731.79475608740720000000, 4202.05117929773590000000, 4615.89732302403260000000, 4297.43579234989370000000, 4816.92295913395630000000, 4280.51271584064030000000, 4292.82040784737000000000, 4487.17937745364820000000, 4857.43577865610950000000, 4444.10245543009300000000, 4170.25630828035080000000, 4521.53835097243610000000, 4312.82040735830650000000, 0.00000000000000000000, 4.00000000000000000000, 4.00000000000000000000, 4.00000000000000000000, 4.00000000000000000000, 4.00000000000000000000, 4.00000000000000000000, 4.00000000000000000000, 4.00000000000000000000, 4.00000000000000000000, 4.00000000000000000000, 4.00000000000000000000, 4.00000000000000000000, 4.00000000000000000000, 4.00000000000000000000, 4.00000000000000000000, 4.00000000000000000000, 1648.00000000000000000000, 1689.00000000000000000000, 0.00000000000000000000
48.00000000000000000000, 0.00000000000000000000, 4058.97425971950000000000, 4733.84603808852900000000, 4199.48707679633390000000, 4614.35886152319110000000, 4295.89733084905220000000, 4814.87167713283450000000, 4281.02553634092060000000, 4294.35886934821160000000, 4489.23065945476990000000, 4856.92295815582840000000, 4448.20501943233650000000, 4168.20502627922910000000, 4525.12809447439850000000, 4312.82040735830650000000, 0.00000000000000000000, 4.00000000000000000000, 4.00000000000000000000, 4.00000000000000000000, 4.00000000000000000000, 4.00000000000000000000, 4.00000000000000000000, 4.00000000000000000000, 4.00000000000000000000, 4.00000000000000000000, 4.00000000000000000000, 4.00000000000000000000, 4.00000000000000000000, 4.00000000000000000000, 4.00000000000000000000, 4.00000000000000000000, 4.00000000000000000000, 1647.00000000000000000000, 1689.00000000000000000000, 0.00000000000000000000
49.00000000000000000000, 0.00000000000000000000, 4063.58964422202370000000, 4735.89732008964980000000, 4205.64092279969920000000, 4613.33322052263070000000, 4294.35886934821160000000, 4818.97424113507800000000, 4278.46143383951860000000, 4293.84604884793040000000, 4490.25630045533030000000, 4859.99988115751150000000, 4449.23066043289690000000, 4167.69220577894790000000, 4524.61527397411830000000, 4308.20502285578280000000, 0.00000000000000000000, 4.00000000000000000000, 4.00000000000000000000, 4.00000000000000000000, 4.00000000000000000000, 4.00000000000000000000, 4.00000000000000000000, 4.00000000000000000000, 4.00000000000000000000, 4.00000000000000000000, 4.00000000000000000000, 4.00000000000000000000, 4.00000000000000000000, 4.00000000000000000000, 4.00000000000000000000, 4.00000000000000000000, 4.00000000000000000000, 1649.00000000000000000000, 1688.00000000000000000000, 0.00000000000000000000
50.00000000000000000000, 0.00000000000000000000, 4063.58964422202370000000, 4731.79475608740720000000, 4205.12810229941900000000, 4616.41014352431280000000, 4296.92297184961350000000, 4826.66654863928400000000, 4278.46143383951860000000, 4292.30758734708980000000, 4487.69219795392840000000, 4858.46141965666990000000, 4448.20501943233650000000, 4168.71784677950930000000, 4524.61527397411830000000, 4308.71784335606300000000, 0.00000000000000000000, 4.00000000000000000000, 4.00000000000000000000, 4.00000000000000000000, 4.00000000000000000000, 4.00000000000000000000, 4.00000000000000000000, 4.00000000000000000000, 4.00000000000000000000, 4.00000000000000000000, 4.00000000000000000000, 4.00000000000000000000, 4.00000000000000000000, 4.00000000000000000000, 4.00000000000000000000, 4.00000000000000000000, 4.00000000000000000000, 1648.00000000000000000000, 1689.00000000000000000000, 0.00000000000000000000
51.00000000000000000000, 0.00000000000000000000, 4058.97425971950000000000, 4732.30757658768740000000, 4198.97425629605370000000, 4614.35886152319110000000, 4297.94861285017400000000, 4822.05116413676020000000, 4280.51271584064030000000, 4291.79476684680960000000, 4481.02553145028290000000, 4848.20500965106200000000, 4445.12809643065430000000, 4168.20502627922910000000, 4521.02553047215590000000, 4310.25630485690450000000, 0.00000000000000000000, 4.00000000000000000000, 4.00000000000000000000, 4.00000000000000000000, 4.00000000000000000000, 4.00000000000000000000, 4.00000000000000000000, 4.00000000000000000000, 4.00000000000000000000, 4.00000000000000000000, 4.00000000000000000000, 4.00000000000000000000, 4.00000000000000000000, 4.00000000000000000000, 4.00000000000000000000, 4.00000000000000000000, 4.00000000000000000000, 1648.00000000000000000000, 1688.00000000000000000000, 0.00000000000000000000
52.00000000000000000000, 0.00000000000000000000, 4058.46143921921930000000, 4733.84603808852900000000, 4199.99989729661500000000, 4608.71783602010690000000, 4296.92297184961350000000, 4816.92295913395630000000, 4278.97425433979880000000, 4289.74348484568780000000, 4471.79476244523540000000, 4841.02552264713540000000, 4442.05117342897120000000, 4165.64092377782710000000, 4513.33322296794900000000, 4306.15374085466100000000, 0.00000000000000000000, 4.00000000000000000000, 4.00000000000000000000, 4.00000000000000000000, 4.00000000000000000000, 4.00000000000000000000, 4.00000000000000000000, 4.00000000000000000000, 4.00000000000000000000, 4.00000000000000000000, 4.00000000000000000000, 4.00000000000000000000, 4.00000000000000000000, 4.00000000000000000000, 4.00000000000000000000, 4.00000000000000000000, 4.00000000000000000000, 1648.00000000000000000000, 1689.00000000000000000000, 0.00000000000000000000
53.00000000000000000000, 0.00000000000000000000, 4062.56400322146280000000, 4731.79475608740720000000, 4208.20502530110120000000, 4611.79475902178910000000, 4300.51271535157590000000, 4826.15372813900380000000, 4279.99989534035920000000, 4291.28194634652850000000, 4476.92296744803930000000, 4843.07680464825720000000, 4443.58963492981270000000, 4171.79476978119150000000, 4514.87168446879060000000, 4310.76912535718470000000, 0.00000000000000000000, 4.00000000000000000000, 4.00000000000000000000, 4.00000000000000000000, 4.00000000000000000000, 4.00000000000000000000, 4.00000000000000000000, 4.00000000000000000000, 4.00000000000000000000, 4.00000000000000000000, 4.00000000000000000000, 4.00000000000000000000, 4.00000000000000000000, 4.00000000000000000000, 4.00000000000000000000, 4.00000000000000000000, 4.00000000000000000000, 1649.00000000000000000000, 1689.00000000000000000000, 0.00000000000000000000
54.00000000000000000000, 0.00000000000000000000, 4071.79477222651030000000, 4737.43578159049140000000, 4216.92297380586840000000, 4623.07681002795830000000, 4307.17938185522140000000, 4830.76911264152750000000, 4279.48707484007900000000, 4293.33322834765020000000, 4488.20501845420860000000, 4845.64090714965910000000, 4449.74348093317800000000, 4181.53835928651920000000, 4522.56399197299650000000, 4323.58963786419460000000, 0.00000000000000000000, 4.00000000000000000000, 4.00000000000000000000, 4.00000000000000000000, 4.00000000000000000000, 4.00000000000000000000, 4.00000000000000000000, 4.00000000000000000000, 4.00000000000000000000, 4.00000000000000000000, 4.00000000000000000000, 4.00000000000000000000, 4.00000000000000000000, 4.00000000000000000000, 4.00000000000000000000, 4.00000000000000000000, 4.00000000000000000000, 1649.00000000000000000000, 1689.00000000000000000000, 0.00000000000000000000
55.00000000000000000000, 0.00000000000000000000, 4079.48707973071670000000, 4748.71783259666060000000, 4218.97425580699020000000, 4629.23065603132360000000, 4309.23066385634320000000, 4818.46142063479780000000, 4270.25630583503150000000, 4291.79476684680960000000, 4483.07681345140460000000, 4845.12808664937890000000, 4455.89732693654240000000, 4184.61528228820230000000, 4523.58963297355790000000, 4327.69220186643820000000, 0.00000000000000000000, 4.00000000000000000000, 4.00000000000000000000, 4.00000000000000000000, 4.00000000000000000000, 4.00000000000000000000, 4.00000000000000000000, 4.00000000000000000000, 4.00000000000000000000, 4.00000000000000000000, 4.00000000000000000000, 4.00000000000000000000, 4.00000000000000000000, 4.00000000000000000000, 4.00000000000000000000, 4.00000000000000000000, 4.00000000000000000000, 1650.00000000000000000000, 1689.00000000000000000000, 0.00000000000000000000
56.00000000000000000000, 0.00000000000000000000, 4079.48707973071670000000, 4749.74347359722200000000, 4217.94861480642880000000, 4626.66655352992170000000, 4304.10245885353920000000, 4811.79475413115230000000, 4266.15374183278800000000, 4289.74348484568780000000, 4474.35886494663740000000, 4845.64090714965910000000, 4456.41014743682260000000, 4184.61528228820230000000, 4521.53835097243610000000, 4324.61527886475600000000, 0.00000000000000000000, 4.00000000000000000000, 4.00000000000000000000, 4.00000000000000000000, 4.00000000000000000000, 4.00000000000000000000, 4.00000000000000000000, 4.00000000000000000000, 4.00000000000000000000, 4.00000000000000000000, 4.00000000000000000000, 4.00000000000000000000, 4.00000000000000000000, 4.00000000000000000000, 4.00000000000000000000, 4.00000000000000000000, 4.00000000000000000000, 1649.00000000000000000000, 1690.00000000000000000000, 0.00000000000000000000
57.00000000000000000000, 0.00000000000000000000, 4082.56400273239930000000, 4744.61526859441710000000, 4219.99989680755060000000, 4626.66655352992170000000, 4304.61527935381950000000, 4821.53834363648000000000, 4274.87169033755530000000, 4292.30758734708980000000, 4481.53835195056310000000, 4849.23065065162250000000, 4450.76912193373850000000, 4183.58964128764090000000, 4522.56399197299650000000, 4326.15374036559750000000, 0.00000000000000000000, 4.00000000000000000000, 4.00000000000000000000, 4.00000000000000000000, 4.00000000000000000000, 4.00000000000000000000, 4.00000000000000000000, 4.00000000000000000000, 4.00000000000000000000, 4.00000000000000000000, 4.00000000000000000000, 4.00000000000000000000, 4.00000000000000000000, 4.00000000000000000000, 4.00000000000000000000, 4.00000000000000000000, 4.00000000000000000000, 1649.00000000000000000000, 1690.00000000000000000000, 0.00000000000000000000
58.00000000000000000000, 0.00000000000000000000, 4085.64092573408150000000, 4747.17937109581910000000, 4219.99989680755060000000, 4627.69219453048210000000, 4308.20502285578280000000, 4827.17936913956420000000, 4281.02553634092060000000, 4295.38451034877200000000, 4490.76912095561060000000, 4854.35885565442640000000, 4444.61527593037320000000, 4183.07682078736070000000, 4522.56399197299650000000, 4328.20502236671840000000, 0.00000000000000000000, 4.00000000000000000000, 4.00000000000000000000, 4.00000000000000000000, 4.00000000000000000000, 4.00000000000000000000, 4.00000000000000000000, 4.00000000000000000000, 4.00000000000000000000, 4.00000000000000000000, 4.00000000000000000000, 4.00000000000000000000, 4.00000000000000000000, 4.00000000000000000000, 4.00000000000000000000, 4.00000000000000000000, 4.00000000000000000000, 1650.00000000000000000000, 1688.00000000000000000000, 0.00000000000000000000
59.00000000000000000000, 0.00000000000000000000, 4078.97425923043600000000, 4750.76911459778240000000, 4217.94861480642880000000, 4623.58963052823860000000, 4304.61527935381950000000, 4822.05116413676020000000, 4279.48707484007900000000, 4295.89733084905220000000, 4491.79476195617190000000, 4857.94859915638970000000, 4447.17937843177510000000, 4185.12810278848250000000, 4523.07681247327760000000, 4326.66656086587770000000, 0.00000000000000000000, 4.00000000000000000000, 4.00000000000000000000, 4.00000000000000000000, 4.00000000000000000000, 4.00000000000000000000, 4.00000000000000000000, 4.00000000000000000000, 4.00000000000000000000, 4.00000000000000000000, 4.00000000000000000000, 4.00000000000000000000, 4.00000000000000000000, 4.00000000000000000000, 4.00000000000000000000, 4.00000000000000000000, 4.00000000000000000000, 1648.00000000000000000000, 1690.00000000000000000000, 0.00000000000000000000
60.00000000000000000000, 0.00000000000000000000, 4075.89733622875380000000, 4748.20501209638040000000, 4217.43579430614860000000, 4621.53834852711770000000, 4303.58963835325900000000, 4821.53834363648000000000, 4281.02553634092060000000, 4294.87168984849180000000, 4489.23065945476990000000, 4856.92295815582840000000, 4455.89732693654240000000, 4184.10246178792200000000, 4524.10245347383810000000, 4326.15374036559750000000, 0.00000000000000000000, 4.00000000000000000000, 4.00000000000000000000, 4.00000000000000000000, 4.00000000000000000000, 4.00000000000000000000, 4.00000000000000000000, 4.00000000000000000000, 4.00000000000000000000, 4.00000000000000000000, 4.00000000000000000000, 4.00000000000000000000, 4.00000000000000000000, 4.00000000000000000000, 4.00000000000000000000, 4.00000000000000000000, 4.00000000000000000000, 1649.00000000000000000000, 1688.00000000000000000000, 0.00000000000000000000
61.00000000000000000000, 0.00000000000000000000, 4081.02554123155780000000, 4746.66655059553890000000, 4216.92297380586840000000, 4627.17937403020190000000, 4307.17938185522140000000, 4827.17936913956420000000, 4281.53835684120080000000, 4296.92297184961350000000, 4491.28194145589170000000, 4857.43577865610950000000, 4455.89732693654240000000, 4179.99989778567850000000, 4523.07681247327760000000, 4321.53835586307380000000, 0.00000000000000000000, 4.00000000000000000000, 4.00000000000000000000, 4.00000000000000000000, 4.00000000000000000000, 4.00000000000000000000, 4.00000000000000000000, 4.00000000000000000000, 4.00000000000000000000, 4.00000000000000000000, 4.00000000000000000000, 4.00000000000000000000, 4.00000000000000000000, 4.00000000000000000000, 4.00000000000000000000, 4.00000000000000000000, 4.00000000000000000000, 1647.00000000000000000000, 1688.00000000000000000000, 0.00000000000000000000
62.00000000000000000000, 0.00000000000000000000, 4078.97425923043600000000, 4748.71783259666060000000, 4216.92297380586840000000, 4629.23065603132360000000, 4303.58963835325900000000, 4826.15372813900380000000, 4279.99989534035920000000, 4298.97425385073530000000, 4497.94860795953720000000, 4861.53834265835210000000, 4450.25630143345820000000, 4179.99989778567850000000, 4523.58963297355790000000, 4313.33322785858670000000, 0.00000000000000000000, 4.00000000000000000000, 4.00000000000000000000, 4.00000000000000000000, 4.00000000000000000000, 4.00000000000000000000, 4.00000000000000000000, 4.00000000000000000000, 4.00000000000000000000, 4.00000000000000000000, 4.00000000000000000000, 4.00000000000000000000, 4.00000000000000000000, 4.00000000000000000000, 4.00000000000000000000, 4.00000000000000000000, 4.00000000000000000000, 1648.00000000000000000000, 1687.00000000000000000000, 0.00000000000000000000
63.00000000000000000000, 0.00000000000000000000, 4073.84605422763210000000, 4748.71783259666060000000, 4213.84605080418620000000, 4626.15373302964140000000, 4303.58963835325900000000, 4826.15372813900380000000, 4286.15374134372450000000, 4296.92297184961350000000, 4499.99988996065800000000, 4863.58962465947390000000, 4447.17937843177510000000, 4175.89733378343500000000, 4523.58963297355790000000, 4311.79476635774520000000, 0.00000000000000000000, 4.00000000000000000000, 4.00000000000000000000, 4.00000000000000000000, 4.00000000000000000000, 4.00000000000000000000, 4.00000000000000000000, 4.00000000000000000000, 4.00000000000000000000, 4.00000000000000000000, 4.00000000000000000000, 4.00000000000000000000, 4.00000000000000000000, 4.00000000000000000000, 4.00000000000000000000, 4.00000000000000000000, 4.00000000000000000000, 1647.00000000000000000000, 1687.00000000000000000000, 0.00000000000000000000
64.00000000000000000000, 0.00000000000000000000, 4070.76913122594940000000, 4747.17937109581910000000, 4204.61528179913880000000, 4626.66655352992170000000, 4310.76912535718470000000, 4831.28193314180770000000, 4294.35886934821160000000, 4294.87168984849180000000, 4491.79476195617190000000, 4861.02552215807190000000, 4445.12809643065430000000, 4168.71784677950930000000, 4522.05117147271630000000, 4310.76912535718470000000, 491.00000000000000000000, 4.00000000000000000000, 4.00000000000000000000, 4.00000000000000000000, 4.00000000000000000000, 4.00000000000000000000, 4.00000000000000000000, 4.00000000000000000000, 4.00000000000000000000, 4.00000000000000000000, 4.00000000000000000000, 4.00000000000000000000, 4.00000000000000000000, 4.00000000000000000000, 4.00000000000000000000, 4.00000000000000000000, 4.00000000000000000000, 1646.00000000000000000000, 1689.00000000000000000000, 0.00000000000000000000
65.00000000000000000000, 0.00000000000000000000, 4064.10246472230390000000, 4749.74347359722200000000, 4197.43579479521210000000, 4623.07681002795830000000, 4310.76912535718470000000, 4831.79475364208790000000, 4295.38451034877200000000, 4295.38451034877200000000, 4487.17937745364820000000, 4859.99988115751150000000, 4444.10245543009300000000, 4168.71784677950930000000, 4521.53835097243610000000, 4303.07681785297880000000, 508.00000000000000000000, 4.00000000000000000000, 4.00000000000000000000, 4.00000000000000000000, 4.00000000000000000000, 4.00000000000000000000, 4.00000000000000000000, 4.00000000000000000000, 4.00000000000000000000, 4.00000000000000000000, 4.00000000000000000000, 4.00000000000000000000, 4.00000000000000000000, 4.00000000000000000000, 4.00000000000000000000, 4.00000000000000000000, 4.00000000000000000000, 1645.00000000000000000000, 1689.00000000000000000000, 0.00000000000000000000
66.00000000000000000000, 0.00000000000000000000, 4058.97425971950000000000, 4747.69219159610020000000, 4198.46143579577350000000, 4617.94860502515440000000, 4307.17938185522140000000, 4827.17936913956420000000, 4291.28194634652850000000, 4295.89733084905220000000, 4491.28194145589170000000, 4860.51270165779170000000, 4447.17937843177510000000, 4165.64092377782710000000, 4520.51270997187480000000, 4292.82040784737000000000, 528.00000000000000000000, 4.00000000000000000000, 4.00000000000000000000, 4.00000000000000000000, 4.00000000000000000000, 4.00000000000000000000, 4.00000000000000000000, 4.00000000000000000000, 4.00000000000000000000, 4.00000000000000000000, 4.00000000000000000000, 4.00000000000000000000, 4.00000000000000000000, 4.00000000000000000000, 4.00000000000000000000, 4.00000000000000000000, 4.00000000000000000000, 1644.00000000000000000000, 1689.00000000000000000000, 0.00000000000000000000
67.00000000000000000000, 0.00000000000000000000, 4057.94861871893910000000, 4739.99988409189340000000, 4201.53835879745570000000, 4619.48706652599590000000, 4308.71784335606300000000, 4826.15372813900380000000, 4288.20502334484630000000, 4293.33322834765020000000, 4490.76912095561060000000, 4849.74347115190270000000, 4444.10245543009300000000, 4155.38451377221830000000, 4511.79476146710840000000, 4283.07681834204230000000, 525.00000000000000000000, 4.00000000000000000000, 4.00000000000000000000, 4.00000000000000000000, 4.00000000000000000000, 4.00000000000000000000, 4.00000000000000000000, 4.00000000000000000000, 4.00000000000000000000, 4.00000000000000000000, 4.00000000000000000000, 4.00000000000000000000, 4.00000000000000000000, 4.00000000000000000000, 4.00000000000000000000, 4.00000000000000000000, 4.00000000000000000000, 1642.00000000000000000000, 1689.00000000000000000000, 0.00000000000000000000
68.00000000000000000000, 0.00000000000000000000, 4056.92297771837820000000, 4742.56398659329530000000, 4199.48707679633390000000, 4618.46142552543460000000, 4308.71784335606300000000, 4829.23065114068590000000, 4287.69220284456610000000, 4293.84604884793040000000, 4486.66655695336790000000, 4842.05116364769670000000, 4438.97425042728900000000, 4149.74348826913410000000, 4501.02553096121940000000, 4278.46143383951860000000, 512.00000000000000000000, 4.00000000000000000000, 4.00000000000000000000, 4.00000000000000000000, 4.00000000000000000000, 4.00000000000000000000, 4.00000000000000000000, 4.00000000000000000000, 4.00000000000000000000, 4.00000000000000000000, 4.00000000000000000000, 4.00000000000000000000, 4.00000000000000000000, 4.00000000000000000000, 4.00000000000000000000, 4.00000000000000000000, 4.00000000000000000000, 1641.00000000000000000000, 1690.00000000000000000000, 0.00000000000000000000
69.00000000000000000000, 0.00000000000000000000, 4061.02554172062170000000, 4750.25629409750220000000, 4195.89733329437150000000, 4613.84604102291090000000, 4307.17938185522140000000, 4829.74347164096620000000, 4283.58963884232250000000, 4293.84604884793040000000, 4492.30758245645210000000, 4852.30757365330460000000, 4441.02553242841080000000, 4156.41015477277960000000, 4504.10245396290160000000, 4284.61527984288300000000, 494.00000000000000000000, 4.00000000000000000000, 4.00000000000000000000, 4.00000000000000000000, 4.00000000000000000000, 4.00000000000000000000, 4.00000000000000000000, 4.00000000000000000000, 4.00000000000000000000, 4.00000000000000000000, 4.00000000000000000000, 4.00000000000000000000, 4.00000000000000000000, 4.00000000000000000000, 4.00000000000000000000, 4.00000000000000000000, 4.00000000000000000000, 1639.00000000000000000000, 1689.00000000000000000000, 0.00000000000000000000
70.00000000000000000000, 0.00000000000000000000, 4064.10246472230390000000, 4750.25629409750220000000, 4196.41015379465170000000, 4619.99988702627620000000, 4306.66656135494120000000, 4827.17936913956420000000, 4277.43579283895720000000, 4291.79476684680960000000, 4493.84604395729370000000, 4855.38449665498770000000, 4444.61527593037320000000, 4167.69220577894790000000, 4515.38450496907080000000, 4295.89733084905220000000, 516.00000000000000000000, 4.00000000000000000000, 4.00000000000000000000, 4.00000000000000000000, 4.00000000000000000000, 4.00000000000000000000, 4.00000000000000000000, 4.00000000000000000000, 4.00000000000000000000, 4.00000000000000000000, 4.00000000000000000000, 4.00000000000000000000, 4.00000000000000000000, 4.00000000000000000000, 4.00000000000000000000, 4.00000000000000000000, 4.00000000000000000000, 1637.00000000000000000000, 1691.00000000000000000000, 0.00000000000000000000
71.00000000000000000000, 0.00000000000000000000, 4061.02554172062170000000, 4748.20501209638040000000, 4201.53835879745570000000, 4627.17937403020190000000, 4307.17938185522140000000, 4829.23065114068590000000, 4282.05117734148100000000, 4292.30758734708980000000, 4482.56399295112440000000, 4842.56398414797700000000, 4445.12809643065430000000, 4170.76912878063100000000, 4515.38450496907080000000, 4298.46143335045510000000, 383.00000000000000000000, 4.00000000000000000000, 4.00000000000000000000, 4.00000000000000000000, 4.00000000000000000000, 4.00000000000000000000, 4.00000000000000000000, 4.00000000000000000000, 4.00000000000000000000, 4.00000000000000000000, 4.00000000000000000000, 4.00000000000000000000, 4.00000000000000000000, 4.00000000000000000000, 4.00000000000000000000, 4.00000000000000000000, 4.00000000000000000000, 1637.00000000000000000000, 1691.00000000000000000000, 0.00000000000000000000
72.00000000000000000000, 0.00000000000000000000, 4063.07682372174350000000, 4748.20501209638040000000, 4202.05117929773590000000, 4623.07681002795830000000, 4308.71784335606300000000, 4830.25629214124730000000, 4289.23066434540670000000, 4294.87168984849180000000, 4479.99989044972240000000, 4838.46142014573340000000, 4441.02553242841080000000, 4167.17938527866770000000, 4502.05117196177980000000, 4294.87168984849180000000, 520.00000000000000000000, 4.00000000000000000000, 4.00000000000000000000, 4.00000000000000000000, 4.00000000000000000000, 4.00000000000000000000, 4.00000000000000000000, 4.00000000000000000000, 4.00000000000000000000, 4.00000000000000000000, 4.00000000000000000000, 4.00000000000000000000, 4.00000000000000000000, 4.00000000000000000000, 4.00000000000000000000, 4.00000000000000000000, 4.00000000000000000000, 1634.00000000000000000000, 1692.00000000000000000000, 0.00000000000000000000
73.00000000000000000000, 0.00000000000000000000, 4069.74349022538850000000, 4745.64090959497840000000, 4199.48707679633390000000, 4620.51270752655640000000, 4303.58963835325900000000, 4821.53834363648000000000, 4284.10245934260270000000, 4294.87168984849180000000, 4489.74347995505010000000, 4845.12808664937890000000, 4438.46142992700880000000, 4165.12810327754600000000, 4498.97424896009760000000, 4298.97425385073530000000, 460.00000000000000000000, 4.00000000000000000000, 4.00000000000000000000, 4.00000000000000000000, 4.00000000000000000000, 4.00000000000000000000, 4.00000000000000000000, 4.00000000000000000000, 4.00000000000000000000, 4.00000000000000000000, 4.00000000000000000000, 4.00000000000000000000, 4.00000000000000000000, 4.00000000000000000000, 4.00000000000000000000, 4.00000000000000000000, 4.00000000000000000000, 1632.00000000000000000000, 1693.00000000000000000000, 0.00000000000000000000
74.00000000000000000000, 0.00000000000000000000, 4079.99990023099690000000, 4750.76911459778240000000, 4206.15374329997940000000, 4627.69219453048210000000, 4300.51271535157590000000, 4812.82039513171280000000, 4276.92297233867700000000, 4294.35886934821160000000, 4493.33322345701340000000, 4846.66654815022050000000, 4449.74348093317800000000, 4170.25630828035080000000, 4518.97424847103410000000, 4315.38450985970850000000, 499.00000000000000000000, 4.00000000000000000000, 4.00000000000000000000, 4.00000000000000000000, 4.00000000000000000000, 4.00000000000000000000, 4.00000000000000000000, 4.00000000000000000000, 4.00000000000000000000, 4.00000000000000000000, 4.00000000000000000000, 4.00000000000000000000, 4.00000000000000000000, 4.00000000000000000000, 4.00000000000000000000, 4.00000000000000000000, 4.00000000000000000000, 1630.00000000000000000000, 1691.00000000000000000000, 0.00000000000000000000
75.00000000000000000000, 0.00000000000000000000, 4087.69220773520330000000, 4759.48706310254970000000, 4216.41015330558820000000, 4631.79475853272560000000, 4306.66656135494120000000, 4812.82039513171280000000, 4278.46143383951860000000, 4293.84604884793040000000, 4489.23065945476990000000, 4844.10244564881850000000, 4458.46142943794440000000, 4176.41015428371520000000, 4524.61527397411830000000, 4321.02553536279270000000, 500.00000000000000000000, 4.00000000000000000000, 4.00000000000000000000, 4.00000000000000000000, 4.00000000000000000000, 4.00000000000000000000, 4.00000000000000000000, 4.00000000000000000000, 4.00000000000000000000, 4.00000000000000000000, 4.00000000000000000000, 4.00000000000000000000, 4.00000000000000000000, 4.00000000000000000000, 4.00000000000000000000, 4.00000000000000000000, 4.00000000000000000000, 1626.00000000000000000000, 1693.00000000000000000000, 0.00000000000000000000
76.00000000000000000000, 0.00000000000000000000, 4081.53836173183840000000, 4748.71783259666060000000, 4217.94861480642880000000, 4623.07681002795830000000, 4311.28194585746500000000, 4818.46142063479780000000, 4279.99989534035920000000, 4292.30758734708980000000, 4487.17937745364820000000, 4844.10244564881850000000, 4445.12809643065430000000, 4173.33323128203300000000, 4503.58963346262140000000, 4308.20502285578280000000, 431.00000000000000000000, 4.00000000000000000000, 4.00000000000000000000, 4.00000000000000000000, 4.00000000000000000000, 4.00000000000000000000, 4.00000000000000000000, 4.00000000000000000000, 4.00000000000000000000, 4.00000000000000000000, 4.00000000000000000000, 4.00000000000000000000, 4.00000000000000000000, 4.00000000000000000000, 4.00000000000000000000, 4.00000000000000000000, 4.00000000000000000000, 1624.00000000000000000000, 1693.00000000000000000000, 0.00000000000000000000
77.00000000000000000000, 0.00000000000000000000, 4072.82041322707120000000, 4737.43578159049140000000, 4215.89733280530710000000, 4618.46142552543460000000, 4308.71784335606300000000, 4824.10244613788200000000, 4279.99989534035920000000, 4294.35886934821160000000, 4496.92296695897580000000, 4851.28193265274420000000, 4444.61527593037320000000, 4171.28194928091120000000, 4506.66655646430350000000, 4306.15374085466100000000, 474.00000000000000000000, 4.00000000000000000000, 4.00000000000000000000, 4.00000000000000000000, 4.00000000000000000000, 4.00000000000000000000, 4.00000000000000000000, 4.00000000000000000000, 4.00000000000000000000, 4.00000000000000000000, 4.00000000000000000000, 4.00000000000000000000, 4.00000000000000000000, 4.00000000000000000000, 4.00000000000000000000, 4.00000000000000000000, 4.00000000000000000000, 1622.00000000000000000000, 1694.00000000000000000000, 0.00000000000000000000
78.00000000000000000000, 0.00000000000000000000, 4076.41015672903400000000, 4738.46142259105270000000, 4216.41015330558820000000, 4619.48706652599590000000, 4307.69220235550260000000, 4826.66654863928400000000, 4284.61527984288300000000, 4295.89733084905220000000, 4510.76912046654710000000, 4863.07680415919370000000, 4467.69219844299190000000, 4180.51271828595870000000, 4539.48706848225080000000, 4317.94861236111050000000, 499.00000000000000000000, 4.00000000000000000000, 4.00000000000000000000, 4.00000000000000000000, 4.00000000000000000000, 4.00000000000000000000, 4.00000000000000000000, 4.00000000000000000000, 4.00000000000000000000, 4.00000000000000000000, 4.00000000000000000000, 4.00000000000000000000, 4.00000000000000000000, 4.00000000000000000000, 4.00000000000000000000, 4.00000000000000000000, 4.00000000000000000000, 1621.00000000000000000000, 1693.00000000000000000000, 0.00000000000000000000
79.00000000000000000000, 0.00000000000000000000, 4077.43579772959490000000, 4727.69219208516370000000, 4214.35887130446640000000, 4611.28193852150890000000, 4307.69220235550260000000, 4826.66654863928400000000, 4291.28194634652850000000, 4294.87168984849180000000, 4505.64091546374310000000, 4869.23065016255900000000, 4476.92296744803930000000, 4184.61528228820230000000, 4556.92296549178450000000, 4321.53835586307380000000, 500.00000000000000000000, 4.00000000000000000000, 4.00000000000000000000, 4.00000000000000000000, 4.00000000000000000000, 4.00000000000000000000, 4.00000000000000000000, 4.00000000000000000000, 4.00000000000000000000, 4.00000000000000000000, 4.00000000000000000000, 4.00000000000000000000, 4.00000000000000000000, 4.00000000000000000000, 4.00000000000000000000, 4.00000000000000000000, 4.00000000000000000000, 1619.00000000000000000000, 1694.00000000000000000000, 0.00000000000000000000
80.00000000000000000000, 0.00000000000000000000, 4072.82041322707120000000, 4709.23065407506870000000, 4213.33323030390510000000, 4601.53834901618120000000, 4309.23066385634320000000, 4828.71783064040570000000, 4296.41015134933330000000, 4302.05117685241750000000, 4499.48706946037780000000, 4878.97423966788660000000, 4479.99989044972240000000, 4182.05117978680030000000, 4567.69219599767350000000, 4318.97425336167090000000, 431.00000000000000000000, 4.00000000000000000000, 4.00000000000000000000, 4.00000000000000000000, 4.00000000000000000000, 4.00000000000000000000, 4.00000000000000000000, 4.00000000000000000000, 4.00000000000000000000, 4.00000000000000000000, 4.00000000000000000000, 4.00000000000000000000, 4.00000000000000000000, 4.00000000000000000000, 4.00000000000000000000, 4.00000000000000000000, 4.00000000000000000000, 1619.00000000000000000000, 1693.00000000000000000000, 0.00000000000000000000
81.00000000000000000000, 0.00000000000000000000, 4075.38451572847320000000, 4704.61526957254500000000, 4216.41015330558820000000, 4601.53834901618120000000, 4312.30758685802630000000, 4831.28193314180770000000, 4298.46143335045510000000, 4314.35886885914720000000, 4522.05117147271630000000, 4900.51270067966380000000, 4500.51271046093920000000, 4192.82041029268840000000, 4596.92296451365750000000, 4324.61527886475600000000, 474.00000000000000000000, 4.00000000000000000000, 4.00000000000000000000, 4.00000000000000000000, 4.00000000000000000000, 4.00000000000000000000, 4.00000000000000000000, 4.00000000000000000000, 4.00000000000000000000, 4.00000000000000000000, 4.00000000000000000000, 4.00000000000000000000, 4.00000000000000000000, 4.00000000000000000000, 4.00000000000000000000, 4.00000000000000000000, 4.00000000000000000000, 1617.00000000000000000000, 1693.00000000000000000000, 0.00000000000000000000
82.00000000000000000000, 0.00000000000000000000, 4077.43579772959490000000, 4702.05116707114300000000, 4216.92297380586840000000, 4603.07681051702180000000, 4310.25630485690450000000, 4830.25629214124730000000, 4297.94861285017400000000, 4319.99989436223220000000, 4541.53835048337260000000, 4918.46141818947850000000, 4520.51270997187480000000, 4205.64092279969920000000, 4622.05116902739790000000, 4331.28194536840150000000, 499.00000000000000000000, 4.00000000000000000000, 4.00000000000000000000, 4.00000000000000000000, 4.00000000000000000000, 4.00000000000000000000, 4.00000000000000000000, 4.00000000000000000000, 4.00000000000000000000, 4.00000000000000000000, 4.00000000000000000000, 4.00000000000000000000, 4.00000000000000000000, 4.00000000000000000000, 4.00000000000000000000, 4.00000000000000000000, 4.00000000000000000000, 1618.00000000000000000000, 1692.00000000000000000000, 0.00000000000000000000
83.00000000000000000000, 0.00000000000000000000, 4076.41015672903400000000, 4689.74347506441250000000, 4217.94861480642880000000, 4601.53834901618120000000, 4310.25630485690450000000, 4831.79475364208790000000, 4301.02553585185710000000, 4323.07681736391440000000, 4539.99988898253100000000, 4924.61526419284380000000, 4522.56399197299650000000, 4204.61528179913880000000, 4629.74347653160380000000, 4328.71784286699950000000, 500.00000000000000000000, 4.00000000000000000000, 4.00000000000000000000, 4.00000000000000000000, 4.00000000000000000000, 4.00000000000000000000, 4.00000000000000000000, 4.00000000000000000000, 4.00000000000000000000, 4.00000000000000000000, 4.00000000000000000000, 4.00000000000000000000, 4.00000000000000000000, 4.00000000000000000000, 4.00000000000000000000, 4.00000000000000000000, 4.00000000000000000000, 1617.00000000000000000000, 1691.00000000000000000000, 0.00000000000000000000
84.00000000000000000000, 0.00000000000000000000, 4072.30759272679100000000, 4680.51270605936500000000, 4216.41015330558820000000, 4599.99988751533970000000, 4313.33322785858670000000, 4832.30757414236900000000, 4304.61527935381950000000, 4323.07681736391440000000, 4538.97424798197060000000, 4919.99987969032010000000, 4514.35886396851040000000, 4201.02553829717540000000, 4623.58963052823860000000, 4326.66656086587770000000, 431.00000000000000000000, 4.00000000000000000000, 4.00000000000000000000, 4.00000000000000000000, 4.00000000000000000000, 4.00000000000000000000, 4.00000000000000000000, 4.00000000000000000000, 4.00000000000000000000, 4.00000000000000000000, 4.00000000000000000000, 4.00000000000000000000, 4.00000000000000000000, 4.00000000000000000000, 4.00000000000000000000, 4.00000000000000000000, 4.00000000000000000000, 1618.00000000000000000000, 1693.00000000000000000000, 0.00000000000000000000
85.00000000000000000000, 0.00000000000000000000, 4063.07682372174350000000, 4677.43578305768280000000, 4207.69220480082090000000, 4597.43578501393770000000, 4309.74348435662340000000, 4830.25629214124730000000, 4301.53835635213730000000, 4318.97425336167090000000, 4534.87168397972710000000, 4909.23064918443110000000, 4507.17937696458470000000, 4201.53835879745570000000, 4609.23065652038710000000, 4327.17938136615790000000, 474.00000000000000000000, 4.00000000000000000000, 4.00000000000000000000, 4.00000000000000000000, 4.00000000000000000000, 4.00000000000000000000, 4.00000000000000000000, 4.00000000000000000000, 4.00000000000000000000, 4.00000000000000000000, 4.00000000000000000000, 4.00000000000000000000, 4.00000000000000000000, 4.00000000000000000000, 4.00000000000000000000, 4.00000000000000000000, 4.00000000000000000000, 1619.00000000000000000000, 1693.00000000000000000000, 0.00000000000000000000
86.00000000000000000000, 0.00000000000000000000, 4058.46143921921930000000, 4678.46142405824320000000, 4201.02553829717540000000, 4596.92296451365750000000, 4304.61527935381950000000, 4828.20501014012550000000, 4295.38451034877200000000, 4317.43579186083020000000, 4529.74347897692220000000, 4904.10244418162710000000, 4506.15373596402330000000, 4197.94861529549330000000, 4602.56399001674160000000, 4321.53835586307380000000, 499.00000000000000000000, 4.00000000000000000000, 4.00000000000000000000, 4.00000000000000000000, 4.00000000000000000000, 4.00000000000000000000, 4.00000000000000000000, 4.00000000000000000000, 4.00000000000000000000, 4.00000000000000000000, 4.00000000000000000000, 4.00000000000000000000, 4.00000000000000000000, 4.00000000000000000000, 4.00000000000000000000, 4.00000000000000000000, 4.00000000000000000000, 1619.00000000000000000000, 1695.00000000000000000000, 0.00000000000000000000
87.00000000000000000000, 0.00000000000000000000, 4058.97425971950000000000, 4678.46142405824320000000, 4199.99989729661500000000, 4598.97424651477920000000, 4305.12809985409970000000, 4828.71783064040570000000, 4294.87168984849180000000, 4316.41015086026890000000, 4531.28194047776380000000, 4906.15372618274890000000, 4499.48706946037780000000, 4188.71784629044580000000, 4596.92296451365750000000, 4308.71784335606300000000, 500.00000000000000000000, 4.00000000000000000000, 4.00000000000000000000, 4.00000000000000000000, 4.00000000000000000000, 4.00000000000000000000, 4.00000000000000000000, 4.00000000000000000000, 4.00000000000000000000, 4.00000000000000000000, 4.00000000000000000000, 4.00000000000000000000, 4.00000000000000000000, 4.00000000000000000000, 4.00000000000000000000, 4.00000000000000000000, 4.00000000000000000000, 1620.00000000000000000000, 1694.00000000000000000000, 0.00000000000000000000
88.00000000000000000000, 0.00000000000000000000, 4059.48708021978020000000, 4677.94860355796300000000, 4201.53835879745570000000, 4598.46142601449810000000, 4306.66656135494120000000, 4830.25629214124730000000, 4302.56399735269770000000, 4311.28194585746500000000, 4530.25629947720340000000, 4901.53834168022510000000, 4489.74347995505010000000, 4186.15374378904290000000, 4585.12809300720800000000, 4299.99989485129570000000, 431.00000000000000000000, 4.00000000000000000000, 4.00000000000000000000, 4.00000000000000000000, 4.00000000000000000000, 4.00000000000000000000, 4.00000000000000000000, 4.00000000000000000000, 4.00000000000000000000, 4.00000000000000000000, 4.00000000000000000000, 4.00000000000000000000, 4.00000000000000000000, 4.00000000000000000000, 4.00000000000000000000, 4.00000000000000000000, 4.00000000000000000000, 1620.00000000000000000000, 1695.00000000000000000000, 0.00000000000000000000
89.00000000000000000000, 0.00000000000000000000, 4056.92297771837820000000, 4678.97424455852430000000, 4202.05117929773590000000, 4600.51270801561990000000, 4306.66656135494120000000, 4830.76911264152750000000, 4304.10245885353920000000, 4309.74348435662340000000, 4523.58963297355790000000, 4892.82039317545790000000, 4488.20501845420860000000, 4187.17938478960420000000, 4579.48706750412290000000, 4296.92297184961350000000, 474.00000000000000000000, 4.00000000000000000000, 4.00000000000000000000, 4.00000000000000000000, 4.00000000000000000000, 4.00000000000000000000, 4.00000000000000000000, 4.00000000000000000000, 4.00000000000000000000, 4.00000000000000000000, 4.00000000000000000000, 4.00000000000000000000, 4.00000000000000000000, 4.00000000000000000000, 4.00000000000000000000, 4.00000000000000000000, 4.00000000000000000000, 1622.00000000000000000000, 1695.00000000000000000000, 0.00000000000000000000
90.00000000000000000000, 0.00000000000000000000, 4053.33323421641530000000, 4674.35886005600060000000, 4199.99989729661500000000, 4602.05116951646140000000, 4308.20502285578280000000, 4829.74347164096620000000, 4297.94861285017400000000, 4310.76912535718470000000, 4521.53835097243610000000, 4891.28193167461630000000, 4488.71783895448970000000, 4183.07682078736070000000, 4582.56399050580600000000, 4295.89733084905220000000, 499.00000000000000000000, 4.00000000000000000000, 4.00000000000000000000, 4.00000000000000000000, 4.00000000000000000000, 4.00000000000000000000, 4.00000000000000000000, 4.00000000000000000000, 4.00000000000000000000, 4.00000000000000000000, 4.00000000000000000000, 4.00000000000000000000, 4.00000000000000000000, 4.00000000000000000000, 4.00000000000000000000, 4.00000000000000000000, 4.00000000000000000000, 1623.00000000000000000000, 1697.00000000000000000000, 0.00000000000000000000
91.00000000000000000000, 0.00000000000000000000, 4052.82041371613510000000, 4673.84603955571950000000, 4205.12810229941900000000, 4598.97424651477920000000, 4310.25630485690450000000, 4830.76911264152750000000, 4301.02553585185710000000, 4310.76912535718470000000, 4521.02553047215590000000, 4891.79475217489740000000, 4488.71783895448970000000, 4187.69220528988440000000, 4583.07681100608620000000, 4302.05117685241750000000, 500.00000000000000000000, 4.00000000000000000000, 4.00000000000000000000, 4.00000000000000000000, 4.00000000000000000000, 4.00000000000000000000, 4.00000000000000000000, 4.00000000000000000000, 4.00000000000000000000, 4.00000000000000000000, 4.00000000000000000000, 4.00000000000000000000, 4.00000000000000000000, 4.00000000000000000000, 4.00000000000000000000, 4.00000000000000000000, 4.00000000000000000000, 1626.00000000000000000000, 1697.00000000000000000000, 0.00000000000000000000
92.00000000000000000000, 0.00000000000000000000, 4060.51272122034110000000, 4683.58962906104810000000, 4215.89733280530710000000, 4598.46142601449810000000, 4312.30758685802630000000, 4832.30757414236900000000, 4306.66656135494120000000, 4310.25630485690450000000, 4517.94860747047280000000, 4892.82039317545790000000, 4491.28194145589170000000, 4199.48707679633390000000, 4583.58963150636650000000, 4311.79476635774520000000, 431.00000000000000000000, 4.00000000000000000000, 4.00000000000000000000, 4.00000000000000000000, 4.00000000000000000000, 4.00000000000000000000, 4.00000000000000000000, 4.00000000000000000000, 4.00000000000000000000, 4.00000000000000000000, 4.00000000000000000000, 4.00000000000000000000, 4.00000000000000000000, 4.00000000000000000000, 4.00000000000000000000, 4.00000000000000000000, 4.00000000000000000000, 1627.00000000000000000000, 1697.00000000000000000000, 0.00000000000000000000
93.00000000000000000000, 0.00000000000000000000, 4071.28195172623010000000, 4688.71783406385200000000, 4218.46143530671000000000, 4605.12809251814360000000, 4312.30758685802630000000, 4831.28193314180770000000, 4299.48707435101550000000, 4309.74348435662340000000, 4522.56399197299650000000, 4901.02552117994490000000, 4499.99988996065800000000, 4202.56399979801700000000, 4594.35886201225550000000, 4317.94861236111050000000, 474.00000000000000000000, 4.00000000000000000000, 4.00000000000000000000, 4.00000000000000000000, 4.00000000000000000000, 4.00000000000000000000, 4.00000000000000000000, 4.00000000000000000000, 4.00000000000000000000, 4.00000000000000000000, 4.00000000000000000000, 4.00000000000000000000, 4.00000000000000000000, 4.00000000000000000000, 4.00000000000000000000, 4.00000000000000000000, 4.00000000000000000000, 1630.00000000000000000000, 1698.00000000000000000000, 0.00000000000000000000
94.00000000000000000000, 0.00000000000000000000, 4077.94861822987510000000, 4688.20501356357180000000, 4216.41015330558820000000, 4606.15373351870490000000, 4311.28194585746500000000, 4830.76911264152750000000, 4291.79476684680960000000, 4311.28194585746500000000, 4530.25629947720340000000, 4909.74346968471130000000, 4506.66655646430350000000, 4202.05117929773590000000, 4600.51270801561990000000, 4322.56399686363420000000, 499.00000000000000000000, 4.00000000000000000000, 4.00000000000000000000, 4.00000000000000000000, 4.00000000000000000000, 4.00000000000000000000, 4.00000000000000000000, 4.00000000000000000000, 4.00000000000000000000, 4.00000000000000000000, 4.00000000000000000000, 4.00000000000000000000, 4.00000000000000000000, 4.00000000000000000000, 4.00000000000000000000, 4.00000000000000000000, 4.00000000000000000000, 1631.00000000000000000000, 1697.00000000000000000000, 0.00000000000000000000
95.00000000000000000000, 0.00000000000000000000, 4074.87169522819290000000, 4687.69219306329070000000, 4215.38451230502690000000, 4601.53834901618120000000, 4311.79476635774520000000, 4831.79475364208790000000, 4294.87168984849180000000, 4311.28194585746500000000, 4530.76911997748360000000, 4909.74346968471130000000, 4498.97424896009760000000, 4200.51271779689520000000, 4590.76911851029220000000, 4319.48707386195200000000, 500.00000000000000000000, 4.00000000000000000000, 4.00000000000000000000, 4.00000000000000000000, 4.00000000000000000000, 4.00000000000000000000, 4.00000000000000000000, 4.00000000000000000000, 4.00000000000000000000, 4.00000000000000000000, 4.00000000000000000000, 4.00000000000000000000, 4.00000000000000000000, 4.00000000000000000000, 4.00000000000000000000, 4.00000000000000000000, 4.00000000000000000000, 1633.00000000000000000000, 1699.00000000000000000000, 0.00000000000000000000
96.00000000000000000000, 0.00000000000000000000, 4063.58964422202370000000, 4683.07680856076690000000, 4208.20502530110120000000, 4598.46142601449810000000, 4310.25630485690450000000, 4831.28193314180770000000, 4297.43579234989370000000, 4308.71784335606300000000, 4524.10245347383810000000, 4901.53834168022510000000, 4487.17937745364820000000, 4189.74348729100620000000, 4584.10245200664670000000, 4305.64092035438080000000, 431.00000000000000000000, 4.00000000000000000000, 4.00000000000000000000, 4.00000000000000000000, 4.00000000000000000000, 4.00000000000000000000, 4.00000000000000000000, 4.00000000000000000000, 4.00000000000000000000, 4.00000000000000000000, 4.00000000000000000000, 4.00000000000000000000, 4.00000000000000000000, 4.00000000000000000000, 4.00000000000000000000, 4.00000000000000000000, 4.00000000000000000000, 1635.00000000000000000000, 1697.00000000000000000000, 0.00000000000000000000
97.00000000000000000000, 0.00000000000000000000, 4057.94861871893910000000, 4678.46142405824320000000, 4201.02553829717540000000, 4594.35886201225550000000, 4309.23066385634320000000, 4831.28193314180770000000, 4297.43579234989370000000, 4314.35886885914720000000, 4523.58963297355790000000, 4894.87167517657960000000, 4485.64091595280660000000, 4179.48707728539830000000, 4583.07681100608620000000, 4298.97425385073530000000, 474.00000000000000000000, 4.00000000000000000000, 4.00000000000000000000, 4.00000000000000000000, 4.00000000000000000000, 4.00000000000000000000, 4.00000000000000000000, 4.00000000000000000000, 4.00000000000000000000, 4.00000000000000000000, 4.00000000000000000000, 4.00000000000000000000, 4.00000000000000000000, 4.00000000000000000000, 4.00000000000000000000, 4.00000000000000000000, 4.00000000000000000000, 1635.00000000000000000000, 1698.00000000000000000000, 0.00000000000000000000
98.00000000000000000000, 0.00000000000000000000, 4061.02554172062170000000, 4677.43578305768280000000, 4202.05117929773590000000, 4587.69219550861000000000, 4309.74348435662340000000, 4833.33321514292950000000, 4298.97425385073530000000, 4321.02553536279270000000, 4529.23065847664200000000, 4895.89731617714010000000, 4490.25630045533030000000, 4185.64092328876270000000, 4575.38450350187940000000, 4312.82040735830650000000, 499.00000000000000000000, 4.00000000000000000000, 4.00000000000000000000, 4.00000000000000000000, 4.00000000000000000000, 4.00000000000000000000, 4.00000000000000000000, 4.00000000000000000000, 4.00000000000000000000, 4.00000000000000000000, 4.00000000000000000000, 4.00000000000000000000, 4.00000000000000000000, 4.00000000000000000000, 4.00000000000000000000, 4.00000000000000000000, 4.00000000000000000000, 1638.00000000000000000000, 1697.00000000000000000000, 0.00000000000000000000
99.00000000000000000000, 0.00000000000000000000, 4062.56400322146280000000, 4678.46142405824320000000, 4201.53835879745570000000, 4587.69219550861000000000, 4302.56399735269770000000, 4830.76911264152750000000, 4296.92297184961350000000, 4314.35886885914720000000, 4519.48706897131430000000, 4892.82039317545790000000, 4488.20501845420860000000, 4194.87169229381020000000, 4571.79475999991700000000, 4320.51271486251240000000, 500.00000000000000000000, 4.00000000000000000000, 4.00000000000000000000, 4.00000000000000000000, 4.00000000000000000000, 4.00000000000000000000, 4.00000000000000000000, 4.00000000000000000000, 4.00000000000000000000, 4.00000000000000000000, 4.00000000000000000000, 4.00000000000000000000, 4.00000000000000000000, 4.00000000000000000000, 4.00000000000000000000, 4.00000000000000000000, 4.00000000000000000000, 1639.00000000000000000000, 1697.00000000000000000000, 0.00000000000000000000
100.00000000000000000000, 0.00000000000000000000, 4058.46143921921930000000, 4676.41014205712240000000, 4197.94861529549330000000, 4591.79475951085350000000, 4295.38451034877200000000, 4826.66654863928400000000, 4294.35886934821160000000, 4306.66656135494120000000, 4503.07681296234110000000, 4877.94859866732530000000, 4478.97424944916110000000, 4190.76912829156750000000, 4569.74347799879520000000, 4306.15374085466100000000, 431.00000000000000000000, 4.00000000000000000000, 4.00000000000000000000, 4.00000000000000000000, 4.00000000000000000000, 4.00000000000000000000, 4.00000000000000000000, 4.00000000000000000000, 4.00000000000000000000, 4.00000000000000000000, 4.00000000000000000000, 4.00000000000000000000, 4.00000000000000000000, 4.00000000000000000000, 4.00000000000000000000, 4.00000000000000000000, 4.00000000000000000000, 1641.00000000000000000000, 1699.00000000000000000000, 0.00000000000000000000
101.00000000000000000000, 0.00000000000000000000, 4055.89733671781730000000, 4674.35886005600060000000, 4197.94861529549330000000, 4590.76911851029220000000, 4299.48707435101550000000, 4827.69218963984530000000, 4293.84604884793040000000, 4308.20502285578280000000, 4503.07681296234110000000, 4870.76911166339960000000, 4470.25630094439480000000, 4181.02553878623890000000, 4557.43578599206560000000, 4292.82040784737000000000, 474.00000000000000000000, 4.00000000000000000000, 4.00000000000000000000, 4.00000000000000000000, 4.00000000000000000000, 4.00000000000000000000, 4.00000000000000000000, 4.00000000000000000000, 4.00000000000000000000, 4.00000000000000000000, 4.00000000000000000000, 4.00000000000000000000, 4.00000000000000000000, 4.00000000000000000000, 4.00000000000000000000, 4.00000000000000000000, 4.00000000000000000000, 1642.00000000000000000000, 1699.00000000000000000000, 0.00000000000000000000
102.00000000000000000000, 0.00000000000000000000, 4058.46143921921930000000, 4679.48706505880450000000, 4198.97425629605370000000, 4593.33322101169410000000, 4304.61527935381950000000, 4828.20501014012550000000, 4289.23066434540670000000, 4303.58963835325900000000, 4508.20501796514510000000, 4875.89731666620450000000, 4470.76912144467500000000, 4181.02553878623890000000, 4550.76911948842010000000, 4294.35886934821160000000, 499.00000000000000000000, 4.00000000000000000000, 4.00000000000000000000, 4.00000000000000000000, 4.00000000000000000000, 4.00000000000000000000, 4.00000000000000000000, 4.00000000000000000000, 4.00000000000000000000, 4.00000000000000000000, 4.00000000000000000000, 4.00000000000000000000, 4.00000000000000000000, 4.00000000000000000000, 4.00000000000000000000, 4.00000000000000000000, 4.00000000000000000000, 1644.00000000000000000000, 1700.00000000000000000000, 0.00000000000000000000
103.00000000000000000000, 0.00000000000000000000, 4054.87169571725640000000, 4687.69219306329070000000, 4198.46143579577350000000, 4598.46142601449810000000, 4303.58963835325900000000, 4821.53834363648000000000, 4281.53835684120080000000, 4294.87168984849180000000, 4506.15373596402330000000, 4873.84603466508270000000, 4473.33322394607690000000, 4184.61528228820230000000, 4553.84604249010230000000, 4296.92297184961350000000, 500.00000000000000000000, 4.00000000000000000000, 4.00000000000000000000, 4.00000000000000000000, 4.00000000000000000000, 4.00000000000000000000, 4.00000000000000000000, 4.00000000000000000000, 4.00000000000000000000, 4.00000000000000000000, 4.00000000000000000000, 4.00000000000000000000, 4.00000000000000000000, 4.00000000000000000000, 4.00000000000000000000, 4.00000000000000000000, 4.00000000000000000000, 1644.00000000000000000000, 1700.00000000000000000000, 0.00000000000000000000
104.00000000000000000000, 0.00000000000000000000, 4051.28195221529360000000, 4687.69219306329070000000, 4197.94861529549330000000, 4599.48706701505940000000, 4302.05117685241750000000, 4814.87167713283450000000, 4279.99989534035920000000, 4296.92297184961350000000, 4502.05117196177980000000, 4869.74347066283920000000, 4470.25630094439480000000, 4182.05117978680030000000, 4550.25629898813900000000, 4289.23066434540670000000, 431.00000000000000000000, 4.00000000000000000000, 4.00000000000000000000, 4.00000000000000000000, 4.00000000000000000000, 4.00000000000000000000, 4.00000000000000000000, 4.00000000000000000000, 4.00000000000000000000, 4.00000000000000000000, 4.00000000000000000000, 4.00000000000000000000, 4.00000000000000000000, 4.00000000000000000000, 4.00000000000000000000, 4.00000000000000000000, 4.00000000000000000000, 1646.00000000000000000000, 1701.00000000000000000000, 0.00000000000000000000
105.00000000000000000000, 0.00000000000000000000, 4054.35887521697620000000, 4690.25629556469360000000, 4198.46143579577350000000, 4598.97424651477920000000, 4303.07681785297880000000, 4816.41013863367610000000, 4283.58963884232250000000, 4303.07681785297880000000, 4508.71783846542530000000, 4872.30757316424110000000, 4469.23065994383340000000, 4180.51271828595870000000, 4548.20501698701810000000, 4284.61527984288300000000, 474.00000000000000000000, 4.00000000000000000000, 4.00000000000000000000, 4.00000000000000000000, 4.00000000000000000000, 4.00000000000000000000, 4.00000000000000000000, 4.00000000000000000000, 4.00000000000000000000, 4.00000000000000000000, 4.00000000000000000000, 4.00000000000000000000, 4.00000000000000000000, 4.00000000000000000000, 4.00000000000000000000, 4.00000000000000000000, 4.00000000000000000000, 1645.00000000000000000000, 1701.00000000000000000000, 0.00000000000000000000
106.00000000000000000000, 0.00000000000000000000, 4062.05118272118260000000, 4702.05116707114300000000, 4199.99989729661500000000, 4602.56399001674160000000, 4303.58963835325900000000, 4816.41013863367610000000, 4281.53835684120080000000, 4304.61527935381950000000, 4517.43578697019260000000, 4874.87167566564310000000, 4471.28194194495520000000, 4184.10246178792200000000, 4552.30758098926070000000, 4289.23066434540670000000, 499.00000000000000000000, 4.00000000000000000000, 4.00000000000000000000, 4.00000000000000000000, 4.00000000000000000000, 4.00000000000000000000, 4.00000000000000000000, 4.00000000000000000000, 4.00000000000000000000, 4.00000000000000000000, 4.00000000000000000000, 4.00000000000000000000, 4.00000000000000000000, 4.00000000000000000000, 4.00000000000000000000, 4.00000000000000000000, 4.00000000000000000000, 1647.00000000000000000000, 1701.00000000000000000000, 0.00000000000000000000
107.00000000000000000000, 0.00000000000000000000, 4068.71784922482770000000, 4707.69219257422720000000, 4203.07682029829720000000, 4608.71783602010690000000, 4304.10245885353920000000, 4812.30757463143250000000, 4278.97425433979880000000, 4305.12809985409970000000, 4521.02553047215590000000, 4881.53834216928860000000, 4474.35886494663740000000, 4190.25630779128640000000, 4559.99988849346760000000, 4294.35886934821160000000, 500.00000000000000000000, 4.00000000000000000000, 4.00000000000000000000, 4.00000000000000000000, 4.00000000000000000000, 4.00000000000000000000, 4.00000000000000000000, 4.00000000000000000000, 4.00000000000000000000, 4.00000000000000000000, 4.00000000000000000000, 4.00000000000000000000, 4.00000000000000000000, 4.00000000000000000000, 4.00000000000000000000, 4.00000000000000000000, 4.00000000000000000000, 1647.00000000000000000000, 1702.00000000000000000000, 0.00000000000000000000
108.00000000000000000000, 0.00000000000000000000, 4079.99990023099690000000, 4710.76911557591030000000, 4211.79476880306450000000, 4614.35886152319110000000, 4306.66656135494120000000, 4818.97424113507800000000, 4288.20502334484630000000, 4310.25630485690450000000, 4523.58963297355790000000, 4891.79475217489740000000, 4482.56399295112440000000, 4199.99989729661500000000, 4569.74347799879520000000, 4301.02553585185710000000, 431.00000000000000000000, 4.00000000000000000000, 4.00000000000000000000, 4.00000000000000000000, 4.00000000000000000000, 4.00000000000000000000, 4.00000000000000000000, 4.00000000000000000000, 4.00000000000000000000, 4.00000000000000000000, 4.00000000000000000000, 4.00000000000000000000, 4.00000000000000000000, 4.00000000000000000000, 4.00000000000000000000, 4.00000000000000000000, 4.00000000000000000000, 1648.00000000000000000000, 1701.00000000000000000000, 0.00000000000000000000
109.00000000000000000000, 0.00000000000000000000, 4087.17938723492310000000, 4713.84603857759250000000, 4218.97425580699020000000, 4612.30757952207020000000, 4305.12809985409970000000, 4826.15372813900380000000, 4296.41015134933330000000, 4311.79476635774520000000, 4519.48706897131430000000, 4890.76911117433610000000, 4492.30758245645210000000, 4208.71784580138140000000, 4573.84604200103880000000, 4309.74348435662340000000, 474.00000000000000000000, 4.00000000000000000000, 4.00000000000000000000, 4.00000000000000000000, 4.00000000000000000000, 4.00000000000000000000, 4.00000000000000000000, 4.00000000000000000000, 4.00000000000000000000, 4.00000000000000000000, 4.00000000000000000000, 4.00000000000000000000, 4.00000000000000000000, 4.00000000000000000000, 4.00000000000000000000, 4.00000000000000000000, 4.00000000000000000000, 1648.00000000000000000000, 1702.00000000000000000000, 0.00000000000000000000
110.00000000000000000000, 0.00000000000000000000, 4084.61528473352060000000, 4709.23065407506870000000, 4218.97425580699020000000, 4607.17937451926540000000, 4298.46143335045510000000, 4818.46142063479780000000, 4288.71784384512650000000, 4303.07681785297880000000, 4511.79476146710840000000, 4879.48706016816690000000, 4486.66655695336790000000, 4212.30758930334470000000, 4570.25629849907550000000, 4313.33322785858670000000, 499.00000000000000000000, 4.00000000000000000000, 4.00000000000000000000, 4.00000000000000000000, 4.00000000000000000000, 4.00000000000000000000, 4.00000000000000000000, 4.00000000000000000000, 4.00000000000000000000, 4.00000000000000000000, 4.00000000000000000000, 4.00000000000000000000, 4.00000000000000000000, 4.00000000000000000000, 4.00000000000000000000, 4.00000000000000000000, 4.00000000000000000000, 1649.00000000000000000000, 1702.00000000000000000000, 0.00000000000000000000
111.00000000000000000000, 0.00000000000000000000, 4085.64092573408150000000, 4706.15373107338560000000, 4218.97425580699020000000, 4609.23065652038710000000, 4295.38451034877200000000, 4810.25629263031080000000, 4278.97425433979880000000, 4296.41015134933330000000, 4519.99988947159450000000, 4873.84603466508270000000, 4478.97424944916110000000, 4215.89733280530710000000, 4568.71783699823390000000, 4313.84604835886690000000, 500.00000000000000000000, 4.00000000000000000000, 4.00000000000000000000, 4.00000000000000000000, 4.00000000000000000000, 4.00000000000000000000, 4.00000000000000000000, 4.00000000000000000000, 4.00000000000000000000, 4.00000000000000000000, 4.00000000000000000000, 4.00000000000000000000, 4.00000000000000000000, 4.00000000000000000000, 4.00000000000000000000, 4.00000000000000000000, 4.00000000000000000000, 1649.00000000000000000000, 1703.00000000000000000000, 0.00000000000000000000
112.00000000000000000000, 0.00000000000000000000, 4091.28195123716610000000, 4714.35885907787270000000, 4221.02553780811190000000, 4611.79475902178910000000, 4296.41015134933330000000, 4812.30757463143250000000, 4278.97425433979880000000, 4299.99989485129570000000, 4535.89732498028750000000, 4875.38449616592330000000, 4487.69219795392840000000, 4216.41015330558820000000, 4570.25629849907550000000, 4321.53835586307380000000, 431.00000000000000000000, 4.00000000000000000000, 4.00000000000000000000, 4.00000000000000000000, 4.00000000000000000000, 4.00000000000000000000, 4.00000000000000000000, 4.00000000000000000000, 4.00000000000000000000, 4.00000000000000000000, 4.00000000000000000000, 4.00000000000000000000, 4.00000000000000000000, 4.00000000000000000000, 4.00000000000000000000, 4.00000000000000000000, 4.00000000000000000000, 1651.00000000000000000000, 1703.00000000000000000000, 0.00000000000000000000
113.00000000000000000000, 0.00000000000000000000, 4090.25631023660530000000, 4718.97424358039640000000, 4219.99989680755060000000, 4610.76911802122870000000, 4295.38451034877200000000, 4813.33321563199300000000, 4280.51271584064030000000, 4305.12809985409970000000, 4543.07681198421320000000, 4875.89731666620450000000, 4489.74347995505010000000, 4208.71784580138140000000, 4568.20501649795370000000, 4323.58963786419460000000, 474.00000000000000000000, 4.00000000000000000000, 4.00000000000000000000, 4.00000000000000000000, 4.00000000000000000000, 4.00000000000000000000, 4.00000000000000000000, 4.00000000000000000000, 4.00000000000000000000, 4.00000000000000000000, 4.00000000000000000000, 4.00000000000000000000, 4.00000000000000000000, 4.00000000000000000000, 4.00000000000000000000, 4.00000000000000000000, 4.00000000000000000000, 1650.00000000000000000000, 1702.00000000000000000000, 0.00000000000000000000
114.00000000000000000000, 0.00000000000000000000, 4082.05118223211870000000, 4713.33321807731230000000, 4218.46143530671000000000, 4609.23065652038710000000, 4294.87168984849180000000, 4811.79475413115230000000, 4277.94861333923840000000, 4307.69220235550260000000, 4552.30758098926070000000, 4877.43577816704510000000, 4482.05117245084420000000, 4203.07682029829720000000, 4569.23065749851500000000, 4312.82040735830650000000, 499.00000000000000000000, 4.00000000000000000000, 4.00000000000000000000, 4.00000000000000000000, 4.00000000000000000000, 4.00000000000000000000, 4.00000000000000000000, 4.00000000000000000000, 4.00000000000000000000, 4.00000000000000000000, 4.00000000000000000000, 4.00000000000000000000, 4.00000000000000000000, 4.00000000000000000000, 4.00000000000000000000, 4.00000000000000000000, 4.00000000000000000000, 1652.00000000000000000000, 1703.00000000000000000000, 0.00000000000000000000
115.00000000000000000000, 0.00000000000000000000, 4077.94861822987510000000, 4707.69219257422720000000, 4215.38451230502690000000, 4606.66655401898520000000, 4296.41015134933330000000, 4812.82039513171280000000, 4277.94861333923840000000, 4311.79476635774520000000, 4556.41014499150420000000, 4879.48706016816690000000, 4484.10245445196600000000, 4203.07682029829720000000, 4570.25629849907550000000, 4307.17938185522140000000, 500.00000000000000000000, 4.00000000000000000000, 4.00000000000000000000, 4.00000000000000000000, 4.00000000000000000000, 4.00000000000000000000, 4.00000000000000000000, 4.00000000000000000000, 4.00000000000000000000, 4.00000000000000000000, 4.00000000000000000000, 4.00000000000000000000, 4.00000000000000000000, 4.00000000000000000000, 4.00000000000000000000, 4.00000000000000000000, 4.00000000000000000000, 1652.00000000000000000000, 1700.00000000000000000000, 0.00000000000000000000
116.00000000000000000000, 0.00000000000000000000, 4074.35887472791230000000, 4705.64091057310540000000, 4206.66656380025960000000, 4602.56399001674160000000, 4296.92297184961350000000, 4815.38449763311470000000, 4279.99989534035920000000, 4308.71784335606300000000, 4543.58963248449440000000, 4877.94859866732530000000, 4486.15373645308680000000, 4202.05117929773590000000, 4562.05117049458930000000, 4309.74348435662340000000, 431.00000000000000000000, 4.00000000000000000000, 4.00000000000000000000, 4.00000000000000000000, 4.00000000000000000000, 4.00000000000000000000, 4.00000000000000000000, 4.00000000000000000000, 4.00000000000000000000, 4.00000000000000000000, 4.00000000000000000000, 4.00000000000000000000, 4.00000000000000000000, 4.00000000000000000000, 4.00000000000000000000, 4.00000000000000000000, 4.00000000000000000000, 1652.00000000000000000000, 1702.00000000000000000000, 0.00000000000000000000
117.00000000000000000000, 0.00000000000000000000, 4069.23066972510830000000, 4702.56398757142320000000, 4201.53835879745570000000, 4601.53834901618120000000, 4297.94861285017400000000, 4816.41013863367610000000, 4279.99989534035920000000, 4299.48707435101550000000, 4537.43578648112910000000, 4876.92295766676490000000, 4478.97424944916110000000, 4196.41015379465170000000, 4554.87168349066270000000, 4305.64092035438080000000, 474.00000000000000000000, 4.00000000000000000000, 4.00000000000000000000, 4.00000000000000000000, 4.00000000000000000000, 4.00000000000000000000, 4.00000000000000000000, 4.00000000000000000000, 4.00000000000000000000, 4.00000000000000000000, 4.00000000000000000000, 4.00000000000000000000, 4.00000000000000000000, 4.00000000000000000000, 4.00000000000000000000, 4.00000000000000000000, 4.00000000000000000000, 1653.00000000000000000000, 1700.00000000000000000000, 0.00000000000000000000
118.00000000000000000000, 0.00000000000000000000, 4065.64092622314550000000, 4699.99988507002130000000, 4202.56399979801700000000, 4601.53834901618120000000, 4296.92297184961350000000, 4814.87167713283450000000, 4277.94861333923840000000, 4294.87168984849180000000, 4531.79476097804400000000, 4871.79475266396090000000, 4474.87168544691850000000, 4189.74348729100620000000, 4554.87168349066270000000, 4295.89733084905220000000, 499.00000000000000000000, 4.00000000000000000000, 4.00000000000000000000, 4.00000000000000000000, 4.00000000000000000000, 4.00000000000000000000, 4.00000000000000000000, 4.00000000000000000000, 4.00000000000000000000, 4.00000000000000000000, 4.00000000000000000000, 4.00000000000000000000, 4.00000000000000000000, 4.00000000000000000000, 4.00000000000000000000, 4.00000000000000000000, 4.00000000000000000000, 1653.00000000000000000000, 1700.00000000000000000000, 0.00000000000000000000
119.00000000000000000000, 0.00000000000000000000, 4063.07682372174350000000, 4706.66655157366680000000, 4201.53835879745570000000, 4602.56399001674160000000, 4295.38451034877200000000, 4813.33321563199300000000, 4277.94861333923840000000, 4295.38451034877200000000, 4510.76912046654710000000, 4863.58962465947390000000, 4474.35886494663740000000, 4186.15374378904290000000, 4552.82040148954180000000, 4293.33322834765020000000, 500.00000000000000000000, 4.00000000000000000000, 4.00000000000000000000, 4.00000000000000000000, 4.00000000000000000000, 4.00000000000000000000, 4.00000000000000000000, 4.00000000000000000000, 4.00000000000000000000, 4.00000000000000000000, 4.00000000000000000000, 4.00000000000000000000, 4.00000000000000000000, 4.00000000000000000000, 4.00000000000000000000, 4.00000000000000000000, 4.00000000000000000000, 1653.00000000000000000000, 1700.00000000000000000000, 0.00000000000000000000
120.00000000000000000000, 0.00000000000000000000, 4069.23066972510830000000, 4713.84603857759250000000, 4200.51271779689520000000, 4605.12809251814360000000, 4295.89733084905220000000, 4812.82039513171280000000, 4278.97425433979880000000, 4296.92297184961350000000, 4501.02553096121940000000, 4862.05116315863320000000, 4471.28194194495520000000, 4189.23066679072600000000, 4544.10245298477460000000, 4297.43579234989370000000, 431.00000000000000000000, 4.00000000000000000000, 4.00000000000000000000, 4.00000000000000000000, 4.00000000000000000000, 4.00000000000000000000, 4.00000000000000000000, 4.00000000000000000000, 4.00000000000000000000, 4.00000000000000000000, 4.00000000000000000000, 4.00000000000000000000, 4.00000000000000000000, 4.00000000000000000000, 4.00000000000000000000, 4.00000000000000000000, 4.00000000000000000000, 1653.00000000000000000000, 1700.00000000000000000000, 0.00000000000000000000
121.00000000000000000000, 0.00000000000000000000, 4072.30759272679100000000, 4710.76911557591030000000, 4200.51271779689520000000, 4602.56399001674160000000, 4294.35886934821160000000, 4808.71783112946920000000, 4273.33322883671460000000, 4294.87168984849180000000, 4507.69219746486490000000, 4861.53834265835210000000, 4469.74348044411360000000, 4189.74348729100620000000, 4534.87168397972710000000, 4295.38451034877200000000, 474.00000000000000000000, 4.00000000000000000000, 4.00000000000000000000, 4.00000000000000000000, 4.00000000000000000000, 4.00000000000000000000, 4.00000000000000000000, 4.00000000000000000000, 4.00000000000000000000, 4.00000000000000000000, 4.00000000000000000000, 4.00000000000000000000, 4.00000000000000000000, 4.00000000000000000000, 4.00000000000000000000, 4.00000000000000000000, 4.00000000000000000000, 1653.00000000000000000000, 1701.00000000000000000000, 0.00000000000000000000
122.00000000000000000000, 0.00000000000000000000, 4069.74349022538850000000, 4709.23065407506870000000, 4201.53835879745570000000, 4602.05116951646140000000, 4293.84604884793040000000, 4808.20501062918900000000, 4272.30758783615330000000, 4296.92297184961350000000, 4509.23065896570640000000, 4865.12808616031540000000, 4471.28194194495520000000, 4189.74348729100620000000, 4537.94860698140930000000, 4289.74348484568780000000, 499.00000000000000000000, 4.00000000000000000000, 4.00000000000000000000, 4.00000000000000000000, 4.00000000000000000000, 4.00000000000000000000, 4.00000000000000000000, 4.00000000000000000000, 4.00000000000000000000, 4.00000000000000000000, 4.00000000000000000000, 4.00000000000000000000, 4.00000000000000000000, 4.00000000000000000000, 4.00000000000000000000, 4.00000000000000000000, 4.00000000000000000000, 1653.00000000000000000000, 1701.00000000000000000000, 0.00000000000000000000
123.00000000000000000000, 0.00000000000000000000, 4076.41015672903400000000, 4718.97424358039640000000, 4209.23066630166250000000, 4611.79475902178910000000, 4297.43579234989370000000, 4813.84603613227410000000, 4280.51271584064030000000, 4306.66656135494120000000, 4509.74347946598660000000, 4877.43577816704510000000, 4476.41014694775910000000, 4196.92297429493190000000, 4551.28193998870030000000, 4292.82040784737000000000, 500.00000000000000000000, 4.00000000000000000000, 4.00000000000000000000, 4.00000000000000000000, 4.00000000000000000000, 4.00000000000000000000, 4.00000000000000000000, 4.00000000000000000000, 4.00000000000000000000, 4.00000000000000000000, 4.00000000000000000000, 4.00000000000000000000, 4.00000000000000000000, 4.00000000000000000000, 4.00000000000000000000, 4.00000000000000000000, 4.00000000000000000000, 1654.00000000000000000000, 1701.00000000000000000000, 0.00000000000000000000
124.00000000000000000000, 0.00000000000000000000, 4084.10246423324040000000, 4724.10244858320040000000, 4216.92297380586840000000, 4617.43578452487420000000, 4297.94861285017400000000, 4814.87167713283450000000, 4283.58963884232250000000, 4308.20502285578280000000, 4508.71783846542530000000, 4876.41013716648470000000, 4478.46142894888090000000, 4203.58964079857740000000, 4557.43578599206560000000, 4300.51271535157590000000, 431.00000000000000000000, 4.00000000000000000000, 4.00000000000000000000, 4.00000000000000000000, 4.00000000000000000000, 4.00000000000000000000, 4.00000000000000000000, 4.00000000000000000000, 4.00000000000000000000, 4.00000000000000000000, 4.00000000000000000000, 4.00000000000000000000, 4.00000000000000000000, 4.00000000000000000000, 4.00000000000000000000, 4.00000000000000000000, 4.00000000000000000000, 1653.00000000000000000000, 1701.00000000000000000000, 0.00000000000000000000
125.00000000000000000000, 0.00000000000000000000, 4083.58964373295980000000, 4719.99988458095780000000, 4218.97425580699020000000, 4615.89732302403260000000, 4296.41015134933330000000, 4811.28193363087120000000, 4278.46143383951860000000, 4298.97425385073530000000, 4502.05117196177980000000, 4859.99988115751150000000, 4475.89732644747890000000, 4199.48707679633390000000, 4553.84604249010230000000, 4299.99989485129570000000, 474.00000000000000000000, 4.00000000000000000000, 4.00000000000000000000, 4.00000000000000000000, 4.00000000000000000000, 4.00000000000000000000, 4.00000000000000000000, 4.00000000000000000000, 4.00000000000000000000, 4.00000000000000000000, 4.00000000000000000000, 4.00000000000000000000, 4.00000000000000000000, 4.00000000000000000000, 4.00000000000000000000, 4.00000000000000000000, 4.00000000000000000000, 1654.00000000000000000000, 1702.00000000000000000000, 0.00000000000000000000
126.00000000000000000000, 0.00000000000000000000, 4078.97425923043600000000, 4718.97424358039640000000, 4215.89733280530710000000, 4613.84604102291090000000, 4296.41015134933330000000, 4812.30757463143250000000, 4276.41015183839680000000, 4295.38451034877200000000, 4500.51271046093920000000, 4859.48706065723040000000, 4474.87168544691850000000, 4189.23066679072600000000, 4551.28193998870030000000, 4294.35886934821160000000, 499.00000000000000000000, 4.00000000000000000000, 4.00000000000000000000, 4.00000000000000000000, 4.00000000000000000000, 4.00000000000000000000, 4.00000000000000000000, 4.00000000000000000000, 4.00000000000000000000, 4.00000000000000000000, 4.00000000000000000000, 4.00000000000000000000, 4.00000000000000000000, 4.00000000000000000000, 4.00000000000000000000, 4.00000000000000000000, 4.00000000000000000000, 1655.00000000000000000000, 1700.00000000000000000000, 0.00000000000000000000
127.00000000000000000000, 0.00000000000000000000, 4069.74349022538850000000, 4718.97424358039640000000, 4205.64092279969920000000, 4607.17937451926540000000, 4293.84604884793040000000, 4809.23065162974940000000, 4270.76912633531170000000, 4298.97425385073530000000, 4504.61527446318270000000, 4863.58962465947390000000, 4472.82040344579670000000, 4182.05117978680030000000, 4548.71783748729830000000, 4285.12810034316410000000, 500.00000000000000000000, 4.00000000000000000000, 4.00000000000000000000, 4.00000000000000000000, 4.00000000000000000000, 4.00000000000000000000, 4.00000000000000000000, 4.00000000000000000000, 4.00000000000000000000, 4.00000000000000000000, 4.00000000000000000000, 4.00000000000000000000, 4.00000000000000000000, 4.00000000000000000000, 4.00000000000000000000, 4.00000000000000000000, 4.00000000000000000000, 1655.00000000000000000000, 1701.00000000000000000000, 0.00000000000000000000
128.00000000000000000000, 0.00000000000000000000, 4060.51272122034110000000, 4716.41014107899450000000, 4203.07682029829720000000, 4600.51270801561990000000, 4292.30758734708980000000, 4804.10244662694550000000, 4261.53835733026430000000, 4297.43579234989370000000, 4505.64091546374310000000, 4859.99988115751150000000, 4472.82040344579670000000, 4183.07682078736070000000, 4548.71783748729830000000, 4277.94861333923840000000, 431.00000000000000000000, 4.00000000000000000000, 4.00000000000000000000, 4.00000000000000000000, 4.00000000000000000000, 4.00000000000000000000, 4.00000000000000000000, 4.00000000000000000000, 4.00000000000000000000, 4.00000000000000000000, 4.00000000000000000000, 4.00000000000000000000, 4.00000000000000000000, 4.00000000000000000000, 4.00000000000000000000, 4.00000000000000000000, 4.00000000000000000000, 1657.00000000000000000000, 1700.00000000000000000000, 0.00000000000000000000
0.00000000000000000000, 0.00000000000000000000, 4066.15374672342570000000, 4715.89732057871420000000, 4213.33323030390510000000, 4608.20501551982670000000, 4295.38451034877200000000, 4808.20501062918900000000, 4265.64092133250780000000, 4296.41015134933330000000, 4505.12809496346290000000, 4865.64090666059560000000, 4475.89732644747890000000, 4184.61528228820230000000, 4551.28193998870030000000, 4284.10245934260270000000, 491.00000000000000000000, 4.00000000000000000000, 4.00000000000000000000, 4.00000000000000000000, 4.00000000000000000000, 4.00000000000000000000, 4.00000000000000000000, 4.00000000000000000000, 4.00000000000000000000, 4.00000000000000000000, 4.00000000000000000000, 4.00000000000000000000, 4.00000000000000000000, 4.00000000000000000000, 4.00000000000000000000, 4.00000000000000000000, 4.00000000000000000000, 1655.00000000000000000000, 1700.00000000000000000000, 0.00000000000000000000
1.00000000000000000000, 0.00000000000000000000, 4076.41015672903400000000, 4723.58962808292020000000, 4216.92297380586840000000, 4614.87168202347220000000, 4297.94861285017400000000, 4812.30757463143250000000, 4272.82040833643350000000, 4296.92297184961350000000, 4505.64091546374310000000, 4871.28193216368070000000, 4476.92296744803930000000, 4184.10246178792200000000, 4552.30758098926070000000, 4295.38451034877200000000, 508.00000000000000000000, 4.00000000000000000000, 4.00000000000000000000, 4.00000000000000000000, 4.00000000000000000000, 4.00000000000000000000, 4.00000000000000000000, 4.00000000000000000000, 4.00000000000000000000, 4.00000000000000000000, 4.00000000000000000000, 4.00000000000000000000, 4.00000000000000000000, 4.00000000000000000000, 4.00000000000000000000, 4.00000000000000000000, 4.00000000000000000000, 1657.00000000000000000000, 1700.00000000000000000000, 0.00000000000000000000
2.00000000000000000000, 0.00000000000000000000, 4083.58964373295980000000, 4733.84603808852900000000, 4212.30758930334470000000, 4615.38450252375240000000, 4302.56399735269770000000, 4811.28193363087120000000, 4271.79476733587310000000, 4295.38451034877200000000, 4504.61527446318270000000, 4868.20500916199760000000, 4477.94860844860070000000, 4191.28194879184780000000, 4553.33322198982210000000, 4297.43579234989370000000, 528.00000000000000000000, 4.00000000000000000000, 4.00000000000000000000, 4.00000000000000000000, 4.00000000000000000000, 4.00000000000000000000, 4.00000000000000000000, 4.00000000000000000000, 4.00000000000000000000, 4.00000000000000000000, 4.00000000000000000000, 4.00000000000000000000, 4.00000000000000000000, 4.00000000000000000000, 4.00000000000000000000, 4.00000000000000000000, 4.00000000000000000000, 1657.00000000000000000000, 1699.00000000000000000000, 0.00000000000000000000
3.00000000000000000000, 0.00000000000000000000, 4089.74348973632500000000, 4737.94860209077160000000, 4218.46143530671000000000, 4625.64091252936030000000, 4305.12809985409970000000, 4810.76911313059100000000, 4273.33322883671460000000, 4297.94861285017400000000, 4502.56399246206090000000, 4871.28193216368070000000, 4481.02553145028290000000, 4199.99989729661500000000, 4556.92296549178450000000, 4294.87168984849180000000, 525.00000000000000000000, 4.00000000000000000000, 4.00000000000000000000, 4.00000000000000000000, 4.00000000000000000000, 4.00000000000000000000, 4.00000000000000000000, 4.00000000000000000000, 4.00000000000000000000, 4.00000000000000000000, 4.00000000000000000000, 4.00000000000000000000, 4.00000000000000000000, 4.00000000000000000000, 4.00000000000000000000, 4.00000000000000000000, 4.00000000000000000000, 1657.00000000000000000000, 1698.00000000000000000000, 0.00000000000000000000
4.00000000000000000000, 0.00000000000000000000, 4091.28195123716610000000, 4735.89732008964980000000, 4222.56399930895260000000, 4628.71783553104340000000, 4298.97425385073530000000, 4804.61526712722570000000, 4276.41015183839680000000, 4306.66656135494120000000, 4504.61527446318270000000, 4875.89731666620450000000, 4483.58963395168480000000, 4199.48707679633390000000, 4556.41014499150420000000, 4299.99989485129570000000, 512.00000000000000000000, 4.00000000000000000000, 4.00000000000000000000, 4.00000000000000000000, 4.00000000000000000000, 4.00000000000000000000, 4.00000000000000000000, 4.00000000000000000000, 4.00000000000000000000, 4.00000000000000000000, 4.00000000000000000000, 4.00000000000000000000, 4.00000000000000000000, 4.00000000000000000000, 4.00000000000000000000, 4.00000000000000000000, 4.00000000000000000000, 1657.00000000000000000000, 1698.00000000000000000000, 0.00000000000000000000
5.00000000000000000000, 0.00000000000000000000, 4088.71784873576420000000, 4734.87167908908940000000, 4216.92297380586840000000, 4618.46142552543460000000, 4292.82040784737000000000, 4801.53834412554350000000, 4275.89733133811660000000, 4311.79476635774520000000, 4506.66655646430350000000, 4874.87167566564310000000, 4487.17937745364820000000, 4197.94861529549330000000, 4554.35886299038250000000, 4304.10245885353920000000, 494.00000000000000000000, 4.00000000000000000000, 4.00000000000000000000, 4.00000000000000000000, 4.00000000000000000000, 4.00000000000000000000, 4.00000000000000000000, 4.00000000000000000000, 4.00000000000000000000, 4.00000000000000000000, 4.00000000000000000000, 4.00000000000000000000, 4.00000000000000000000, 4.00000000000000000000, 4.00000000000000000000, 4.00000000000000000000, 4.00000000000000000000, 1658.00000000000000000000, 1697.00000000000000000000, 0.00000000000000000000
6.00000000000000000000, 0.00000000000000000000, 4090.76913073688590000000, 4734.87167908908940000000, 4219.48707630727040000000, 4619.99988702627620000000, 4295.38451034877200000000, 4809.74347213003060000000, 4277.94861333923840000000, 4311.28194585746500000000, 4507.17937696458470000000, 4875.38449616592330000000, 4490.25630045533030000000, 4206.15374329997940000000, 4555.89732449122400000000, 4304.61527935381950000000, 516.00000000000000000000, 4.00000000000000000000, 4.00000000000000000000, 4.00000000000000000000, 4.00000000000000000000, 4.00000000000000000000, 4.00000000000000000000, 4.00000000000000000000, 4.00000000000000000000, 4.00000000000000000000, 4.00000000000000000000, 4.00000000000000000000, 4.00000000000000000000, 4.00000000000000000000, 4.00000000000000000000, 4.00000000000000000000, 4.00000000000000000000, 1657.00000000000000000000, 1697.00000000000000000000, 0.00000000000000000000
7.00000000000000000000, 0.00000000000000000000, 4103.07682274361560000000, 4735.89732008964980000000, 4231.79476831400010000000, 4629.74347653160380000000, 4298.97425385073530000000, 4814.87167713283450000000, 4283.07681834204230000000, 4311.28194585746500000000, 4514.87168446879060000000, 4877.43577816704510000000, 4489.74347995505010000000, 4213.33323030390510000000, 4557.94860649234580000000, 4310.25630485690450000000, 383.00000000000000000000, 4.00000000000000000000, 4.00000000000000000000, 4.00000000000000000000, 4.00000000000000000000, 4.00000000000000000000, 4.00000000000000000000, 4.00000000000000000000, 4.00000000000000000000, 4.00000000000000000000, 4.00000000000000000000, 4.00000000000000000000, 4.00000000000000000000, 4.00000000000000000000, 4.00000000000000000000, 4.00000000000000000000, 4.00000000000000000000, 1658.00000000000000000000, 1697.00000000000000000000, 0.00000000000000000000
8.00000000000000000000, 0.00000000000000000000, 4108.71784824670070000000, 4737.94860209077160000000, 4233.84605031512180000000, 4626.66655352992170000000, 4295.89733084905220000000, 4812.82039513171280000000, 4285.12810034316410000000, 4313.33322785858670000000, 4522.56399197299650000000, 4879.48706016816690000000, 4491.28194145589170000000, 4210.25630730222290000000, 4557.43578599206560000000, 4314.35886885914720000000, 520.00000000000000000000, 4.00000000000000000000, 4.00000000000000000000, 4.00000000000000000000, 4.00000000000000000000, 4.00000000000000000000, 4.00000000000000000000, 4.00000000000000000000, 4.00000000000000000000, 4.00000000000000000000, 4.00000000000000000000, 4.00000000000000000000, 4.00000000000000000000, 4.00000000000000000000, 4.00000000000000000000, 4.00000000000000000000, 4.00000000000000000000, 1658.00000000000000000000, 1695.00000000000000000000, 0.00000000000000000000
9.00000000000000000000, 0.00000000000000000000, 4096.41015623997010000000, 4734.87167908908940000000, 4220.51271730783080000000, 4617.94860502515440000000, 4293.84604884793040000000, 4811.79475413115230000000, 4282.05117734148100000000, 4306.66656135494120000000, 4514.35886396851040000000, 4877.43577816704510000000, 4488.71783895448970000000, 4202.05117929773590000000, 4556.92296549178450000000, 4307.69220235550260000000, 460.00000000000000000000, 4.00000000000000000000, 4.00000000000000000000, 4.00000000000000000000, 4.00000000000000000000, 4.00000000000000000000, 4.00000000000000000000, 4.00000000000000000000, 4.00000000000000000000, 4.00000000000000000000, 4.00000000000000000000, 4.00000000000000000000, 4.00000000000000000000, 4.00000000000000000000, 4.00000000000000000000, 4.00000000000000000000, 4.00000000000000000000, 1657.00000000000000000000, 1696.00000000000000000000, 0.00000000000000000000
10.00000000000000000000, 0.00000000000000000000, 4087.17938723492310000000, 4731.79475608740720000000, 4214.87169180474670000000, 4616.92296402459400000000, 4296.41015134933330000000, 4811.28193363087120000000, 4278.46143383951860000000, 4293.84604884793040000000, 4499.48706946037780000000, 4866.15372716087590000000, 4479.99989044972240000000, 4191.28194879184780000000, 4554.35886299038250000000, 4302.56399735269770000000, 499.00000000000000000000, 4.00000000000000000000, 4.00000000000000000000, 4.00000000000000000000, 4.00000000000000000000, 4.00000000000000000000, 4.00000000000000000000, 4.00000000000000000000, 4.00000000000000000000, 4.00000000000000000000, 4.00000000000000000000, 4.00000000000000000000, 4.00000000000000000000, 4.00000000000000000000, 4.00000000000000000000, 4.00000000000000000000, 4.00000000000000000000, 1660.00000000000000000000, 1695.00000000000000000000, 0.00000000000000000000
11.00000000000000000000, 0.00000000000000000000, 4089.74348973632500000000, 4735.89732008964980000000, 4216.92297380586840000000, 4616.92296402459400000000, 4299.99989485129570000000, 4813.84603613227410000000, 4280.51271584064030000000, 4291.28194634652850000000, 4501.02553096121940000000, 4860.51270165779170000000, 4474.35886494663740000000, 4185.12810278848250000000, 4545.12809398533500000000, 4299.99989485129570000000, 500.00000000000000000000, 4.00000000000000000000, 4.00000000000000000000, 4.00000000000000000000, 4.00000000000000000000, 4.00000000000000000000, 4.00000000000000000000, 4.00000000000000000000, 4.00000000000000000000, 4.00000000000000000000, 4.00000000000000000000, 4.00000000000000000000, 4.00000000000000000000, 4.00000000000000000000, 4.00000000000000000000, 4.00000000000000000000, 4.00000000000000000000, 1658.00000000000000000000, 1695.00000000000000000000, 0.00000000000000000000
12.00000000000000000000, 0.00000000000000000000, 4080.51272073127760000000, 4737.43578159049140000000, 4207.69220480082090000000, 4614.87168202347220000000, 4299.48707435101550000000, 4813.84603613227410000000, 4278.46143383951860000000, 4296.92297184961350000000, 4510.76912046654710000000, 4862.56398365891350000000, 4474.35886494663740000000, 4179.99989778567850000000, 4537.43578648112910000000, 4288.71784384512650000000, 431.00000000000000000000, 4.00000000000000000000, 4.00000000000000000000, 4.00000000000000000000, 4.00000000000000000000, 4.00000000000000000000, 4.00000000000000000000, 4.00000000000000000000, 4.00000000000000000000, 4.00000000000000000000, 4.00000000000000000000, 4.00000000000000000000, 4.00000000000000000000, 4.00000000000000000000, 4.00000000000000000000, 4.00000000000000000000, 4.00000000000000000000, 1659.00000000000000000000, 1696.00000000000000000000, 0.00000000000000000000
13.00000000000000000000, 0.00000000000000000000, 4062.56400322146280000000, 4731.28193558712610000000, 4195.38451279409130000000, 4613.33322052263070000000, 4296.41015134933330000000, 4804.61526712722570000000, 4266.66656233306910000000, 4296.41015134933330000000, 4503.07681296234110000000, 4858.97424015695010000000, 4472.82040344579670000000, 4167.69220577894790000000, 4535.89732498028750000000, 4275.38451083783550000000, 474.00000000000000000000, 4.00000000000000000000, 4.00000000000000000000, 4.00000000000000000000, 4.00000000000000000000, 4.00000000000000000000, 4.00000000000000000000, 4.00000000000000000000, 4.00000000000000000000, 4.00000000000000000000, 4.00000000000000000000, 4.00000000000000000000, 4.00000000000000000000, 4.00000000000000000000, 4.00000000000000000000, 4.00000000000000000000, 4.00000000000000000000, 1659.00000000000000000000, 1695.00000000000000000000, 0.00000000000000000000
14.00000000000000000000, 0.00000000000000000000, 4063.58964422202370000000, 4734.35885858880920000000, 4196.41015379465170000000, 4614.87168202347220000000, 4298.97425385073530000000, 4802.05116462582370000000, 4268.71784433419090000000, 4293.84604884793040000000, 4491.28194145589170000000, 4856.92295815582840000000, 4470.25630094439480000000, 4167.17938527866770000000, 4536.41014548056770000000, 4272.30758783615330000000, 499.00000000000000000000, 4.00000000000000000000, 4.00000000000000000000, 4.00000000000000000000, 4.00000000000000000000, 4.00000000000000000000, 4.00000000000000000000, 4.00000000000000000000, 4.00000000000000000000, 4.00000000000000000000, 4.00000000000000000000, 4.00000000000000000000, 4.00000000000000000000, 4.00000000000000000000, 4.00000000000000000000, 4.00000000000000000000, 4.00000000000000000000, 1660.00000000000000000000, 1695.00000000000000000000, 0.00000000000000000000
15.00000000000000000000, 0.00000000000000000000, 4078.97425923043600000000, 4747.17937109581910000000, 4205.64092279969920000000, 4621.53834852711770000000, 4308.20502285578280000000, 4814.35885663255430000000, 4282.05117734148100000000, 4299.99989485129570000000, 4498.46142845981740000000, 4859.99988115751150000000, 4476.41014694775910000000, 4181.02553878623890000000, 4544.61527348505480000000, 4284.10245934260270000000, 500.00000000000000000000, 4.00000000000000000000, 4.00000000000000000000, 4.00000000000000000000, 4.00000000000000000000, 4.00000000000000000000, 4.00000000000000000000, 4.00000000000000000000, 4.00000000000000000000, 4.00000000000000000000, 4.00000000000000000000, 4.00000000000000000000, 4.00000000000000000000, 4.00000000000000000000, 4.00000000000000000000, 4.00000000000000000000, 4.00000000000000000000, 1659.00000000000000000000, 1694.00000000000000000000, 0.00000000000000000000
16.00000000000000000000, 0.00000000000000000000, 4089.74348973632500000000, 4750.76911459778240000000, 4212.30758930334470000000, 4629.23065603132360000000, 4307.17938185522140000000, 4814.87167713283450000000, 4282.05117734148100000000, 4303.58963835325900000000, 4507.17937696458470000000, 4864.10244515975410000000, 4487.17937745364820000000, 4189.23066679072600000000, 4555.89732449122400000000, 4299.99989485129570000000, 0.00000000000000000000, 4.00000000000000000000, 4.00000000000000000000, 4.00000000000000000000, 4.00000000000000000000, 4.00000000000000000000, 4.00000000000000000000, 4.00000000000000000000, 4.00000000000000000000, 4.00000000000000000000, 4.00000000000000000000, 4.00000000000000000000, 4.00000000000000000000, 4.00000000000000000000, 4.00000000000000000000, 4.00000000000000000000, 4.00000000000000000000, 1660.00000000000000000000, 1694.00000000000000000000, 0.00000000000000000000
17.00000000000000000000, 0.00000000000000000000, 4091.28195123716610000000, 4747.17937109581910000000, 4214.87169180474670000000, 4628.71783553104340000000, 4295.38451034877200000000, 4799.99988262470200000000, 4275.89733133811660000000, 4304.10245885353920000000, 4509.23065896570640000000, 4870.25629116311940000000, 4491.79476195617190000000, 4191.28194879184780000000, 4558.97424749290620000000, 4304.61527935381950000000, 0.00000000000000000000, 4.00000000000000000000, 4.00000000000000000000, 4.00000000000000000000, 4.00000000000000000000, 4.00000000000000000000, 4.00000000000000000000, 4.00000000000000000000, 4.00000000000000000000, 4.00000000000000000000, 4.00000000000000000000, 4.00000000000000000000, 4.00000000000000000000, 4.00000000000000000000, 4.00000000000000000000, 4.00000000000000000000, 4.00000000000000000000, 1661.00000000000000000000, 1692.00000000000000000000, 0.00000000000000000000
18.00000000000000000000, 0.00000000000000000000, 4094.35887423884880000000, 4746.15373009525870000000, 4215.38451230502690000000, 4623.58963052823860000000, 4291.79476684680960000000, 4799.48706212442180000000, 4281.02553634092060000000, 4308.20502285578280000000, 4518.46142797075390000000, 4875.38449616592330000000, 4491.28194145589170000000, 4199.48707679633390000000, 4559.99988849346760000000, 4305.12809985409970000000, 0.00000000000000000000, 4.00000000000000000000, 4.00000000000000000000, 4.00000000000000000000, 4.00000000000000000000, 4.00000000000000000000, 4.00000000000000000000, 4.00000000000000000000, 4.00000000000000000000, 4.00000000000000000000, 4.00000000000000000000, 4.00000000000000000000, 4.00000000000000000000, 4.00000000000000000000, 4.00000000000000000000, 4.00000000000000000000, 4.00000000000000000000, 1661.00000000000000000000, 1693.00000000000000000000, 0.00000000000000000000
19.00000000000000000000, 0.00000000000000000000, 4096.92297674025120000000, 4749.74347359722200000000, 4218.97425580699020000000, 4627.17937403020190000000, 4301.53835635213730000000, 4812.30757463143250000000, 4290.25630534596800000000, 4313.84604835886690000000, 4527.17937647552030000000, 4882.05116266956880000000, 4491.28194145589170000000, 4202.56399979801700000000, 4569.23065749851500000000, 4309.74348435662340000000, 0.00000000000000000000, 4.00000000000000000000, 4.00000000000000000000, 4.00000000000000000000, 4.00000000000000000000, 4.00000000000000000000, 4.00000000000000000000, 4.00000000000000000000, 4.00000000000000000000, 4.00000000000000000000, 4.00000000000000000000, 4.00000000000000000000, 4.00000000000000000000, 4.00000000000000000000, 4.00000000000000000000, 4.00000000000000000000, 4.00000000000000000000, 1662.00000000000000000000, 1691.00000000000000000000, 0.00000000000000000000
