title:mixed                                                                           , recorded:10.11.13 21.15.22, sampling:128, subject:anthony                                                                         , labels:COUNTER INTERPOLATED AF3 F7 F3 FC5 T7 P7 O1 O2 P8 T8 FC6 F4 F8 AF4 RAW_CQ CQ_AF3 CQ_F7 CQ_F3 CQ_FC5 CQ_T7 CQ_P7 CQ_O1 CQ_O2 CQ_P8 CQ_T8 CQ_FC6 CQ_F4 CQ_F8 CQ_AF4 CQ_CMS CQ_DRL GYROX GYROY MARKER, chan:36, units:emotiv
13.00000000000000000000, 0.00000000000000000000, 4083.58964373295980000000, 4675.89732155684120000000, 4234.35887081540300000000, 4623.58963052823860000000, 4290.76912584624820000000, 4810.25629263031080000000, 4291.79476684680960000000, 4310.76912535718470000000, 4486.66655695336790000000, 4886.15372667181240000000, 4439.99989142784940000000, 4230.25630681315940000000, 4577.43578550300120000000, 4318.97425336167090000000, 479.00000000000000000000, 4.00000000000000000000, 4.00000000000000000000, 4.00000000000000000000, 4.00000000000000000000, 4.00000000000000000000, 4.00000000000000000000, 4.00000000000000000000, 4.00000000000000000000, 4.00000000000000000000, 4.00000000000000000000, 4.00000000000000000000, 4.00000000000000000000, 4.00000000000000000000, 4.00000000000000000000, 4.00000000000000000000, 4.00000000000000000000, 1655.00000000000000000000, 1694.00000000000000000000, 0.00000000000000000000
14.00000000000000000000, 0.00000000000000000000, 4088.20502823548350000000, 4677.94860355796300000000, 4233.84605031512180000000, 4625.12809202908010000000, 4289.23066434540670000000, 4807.69219012890880000000, 4284.61527984288300000000, 4311.79476635774520000000, 4488.20501845420860000000, 4890.25629067405590000000, 4436.92296842616720000000, 4229.23066581259810000000, 4571.79475999991700000000, 4318.97425336167090000000, 501.00000000000000000000, 4.00000000000000000000, 4.00000000000000000000, 4.00000000000000000000, 4.00000000000000000000, 4.00000000000000000000, 4.00000000000000000000, 4.00000000000000000000, 4.00000000000000000000, 4.00000000000000000000, 4.00000000000000000000, 4.00000000000000000000, 4.00000000000000000000, 4.00000000000000000000, 4.00000000000000000000, 4.00000000000000000000, 4.00000000000000000000, 1656.00000000000000000000, 1693.00000000000000000000, 0.00000000000000000000
15.00000000000000000000, 0.00000000000000000000, 4089.74348973632500000000, 4677.94860355796300000000, 4234.35887081540300000000, 4627.69219453048210000000, 4290.76912584624820000000, 4809.74347213003060000000, 4278.97425433979880000000, 4310.76912535718470000000, 4491.79476195617190000000, 4888.71782917321430000000, 4438.97425042728900000000, 4226.66656331119610000000, 4573.33322150075860000000, 4314.35886885914720000000, 497.00000000000000000000, 4.00000000000000000000, 4.00000000000000000000, 4.00000000000000000000, 4.00000000000000000000, 4.00000000000000000000, 4.00000000000000000000, 4.00000000000000000000, 4.00000000000000000000, 4.00000000000000000000, 4.00000000000000000000, 4.00000000000000000000, 4.00000000000000000000, 4.00000000000000000000, 4.00000000000000000000, 4.00000000000000000000, 4.00000000000000000000, 1655.00000000000000000000, 1694.00000000000000000000, 0.00000000000000000000
16.00000000000000000000, 0.00000000000000000000, 4082.05118223211870000000, 4675.89732155684120000000, 4231.28194781371990000000, 4625.64091252936030000000, 4293.33322834765020000000, 4811.28193363087120000000, 4281.02553634092060000000, 4309.23066385634320000000, 4488.71783895448970000000, 4879.99988066844710000000, 4436.92296842616720000000, 4220.51271730783080000000, 4569.74347799879520000000, 4308.20502285578280000000, 0.00000000000000000000, 4.00000000000000000000, 4.00000000000000000000, 4.00000000000000000000, 4.00000000000000000000, 4.00000000000000000000, 4.00000000000000000000, 4.00000000000000000000, 4.00000000000000000000, 4.00000000000000000000, 4.00000000000000000000, 4.00000000000000000000, 4.00000000000000000000, 4.00000000000000000000, 4.00000000000000000000, 4.00000000000000000000, 4.00000000000000000000, 1656.00000000000000000000, 1693.00000000000000000000, 0.00000000000000000000
17.00000000000000000000, 0.00000000000000000000, 4076.41015672903400000000, 4676.41014205712240000000, 4229.23066581259810000000, 4623.07681002795830000000, 4295.38451034877200000000, 4810.76911313059100000000, 4282.56399784176210000000, 4308.71784335606300000000, 4486.66655695336790000000, 4878.97423966788660000000, 4432.82040442392370000000, 4217.43579430614860000000, 4567.69219599767350000000, 4307.69220235550260000000, 0.00000000000000000000, 4.00000000000000000000, 4.00000000000000000000, 4.00000000000000000000, 4.00000000000000000000, 4.00000000000000000000, 4.00000000000000000000, 4.00000000000000000000, 4.00000000000000000000, 4.00000000000000000000, 4.00000000000000000000, 4.00000000000000000000, 4.00000000000000000000, 4.00000000000000000000, 4.00000000000000000000, 4.00000000000000000000, 4.00000000000000000000, 1653.00000000000000000000, 1693.00000000000000000000, 0.00000000000000000000
18.00000000000000000000, 0.00000000000000000000, 4077.94861822987510000000, 4676.92296255740260000000, 4226.66656331119610000000, 4626.15373302964140000000, 4296.41015134933330000000, 4812.30757463143250000000, 4281.53835684120080000000, 4309.74348435662340000000, 4488.71783895448970000000, 4888.71782917321430000000, 4434.87168642504550000000, 4218.97425580699020000000, 4570.76911899935570000000, 4305.64092035438080000000, 0.00000000000000000000, 4.00000000000000000000, 4.00000000000000000000, 4.00000000000000000000, 4.00000000000000000000, 4.00000000000000000000, 4.00000000000000000000, 4.00000000000000000000, 4.00000000000000000000, 4.00000000000000000000, 4.00000000000000000000, 4.00000000000000000000, 4.00000000000000000000, 4.00000000000000000000, 4.00000000000000000000, 4.00000000000000000000, 4.00000000000000000000, 1655.00000000000000000000, 1694.00000000000000000000, 0.00000000000000000000
19.00000000000000000000, 0.00000000000000000000, 4073.33323372735140000000, 4672.82039855515900000000, 4221.02553780811190000000, 4623.58963052823860000000, 4296.92297184961350000000, 4812.82039513171280000000, 4281.53835684120080000000, 4311.28194585746500000000, 4489.74347995505010000000, 4889.23064967349460000000, 4432.30758392364350000000, 4214.87169180474670000000, 4560.51270899374780000000, 4296.41015134933330000000, 0.00000000000000000000, 4.00000000000000000000, 4.00000000000000000000, 4.00000000000000000000, 4.00000000000000000000, 4.00000000000000000000, 4.00000000000000000000, 4.00000000000000000000, 4.00000000000000000000, 4.00000000000000000000, 4.00000000000000000000, 4.00000000000000000000, 4.00000000000000000000, 4.00000000000000000000, 4.00000000000000000000, 4.00000000000000000000, 4.00000000000000000000, 1655.00000000000000000000, 1692.00000000000000000000, 0.00000000000000000000
20.00000000000000000000, 0.00000000000000000000, 4064.61528522258460000000, 4670.25629605375710000000, 4217.43579430614860000000, 4616.92296402459400000000, 4296.41015134933330000000, 4811.28193363087120000000, 4282.05117734148100000000, 4309.74348435662340000000, 4488.71783895448970000000, 4880.51270116872820000000, 4424.10245591915650000000, 4206.15374329997940000000, 4547.69219648673700000000, 4289.23066434540670000000, 0.00000000000000000000, 4.00000000000000000000, 4.00000000000000000000, 4.00000000000000000000, 4.00000000000000000000, 4.00000000000000000000, 4.00000000000000000000, 4.00000000000000000000, 4.00000000000000000000, 4.00000000000000000000, 4.00000000000000000000, 4.00000000000000000000, 4.00000000000000000000, 4.00000000000000000000, 4.00000000000000000000, 4.00000000000000000000, 4.00000000000000000000, 1653.00000000000000000000, 1693.00000000000000000000, 0.00000000000000000000
21.00000000000000000000, 0.00000000000000000000, 4066.66656722370640000000, 4676.92296255740260000000, 4217.94861480642880000000, 4621.02552802683660000000, 4295.89733084905220000000, 4811.79475413115230000000, 4282.56399784176210000000, 4309.23066385634320000000, 4487.17937745364820000000, 4883.58962417041040000000, 4431.28194292308220000000, 4206.66656380025960000000, 4556.41014499150420000000, 4291.28194634652850000000, 0.00000000000000000000, 4.00000000000000000000, 4.00000000000000000000, 4.00000000000000000000, 4.00000000000000000000, 4.00000000000000000000, 4.00000000000000000000, 4.00000000000000000000, 4.00000000000000000000, 4.00000000000000000000, 4.00000000000000000000, 4.00000000000000000000, 4.00000000000000000000, 4.00000000000000000000, 4.00000000000000000000, 4.00000000000000000000, 4.00000000000000000000, 1654.00000000000000000000, 1692.00000000000000000000, 0.00000000000000000000
22.00000000000000000000, 0.00000000000000000000, 4070.25631072566920000000, 4681.02552655964610000000, 4217.43579430614860000000, 4627.17937403020190000000, 4295.38451034877200000000, 4810.76911313059100000000, 4279.48707484007900000000, 4307.17938185522140000000, 4487.17937745364820000000, 4892.82039317545790000000, 4445.64091693093450000000, 4214.35887130446640000000, 4574.87168300159920000000, 4294.87168984849180000000, 0.00000000000000000000, 4.00000000000000000000, 4.00000000000000000000, 4.00000000000000000000, 4.00000000000000000000, 4.00000000000000000000, 4.00000000000000000000, 4.00000000000000000000, 4.00000000000000000000, 4.00000000000000000000, 4.00000000000000000000, 4.00000000000000000000, 4.00000000000000000000, 4.00000000000000000000, 4.00000000000000000000, 4.00000000000000000000, 4.00000000000000000000, 1653.00000000000000000000, 1692.00000000000000000000, 0.00000000000000000000
23.00000000000000000000, 0.00000000000000000000, 4071.79477222651030000000, 4675.38450105656100000000, 4217.43579430614860000000, 4623.58963052823860000000, 4295.38451034877200000000, 4810.25629263031080000000, 4280.51271584064030000000, 4311.28194585746500000000, 4490.76912095561060000000, 4893.33321367573810000000, 4446.15373743121470000000, 4216.41015330558820000000, 4581.53834950524470000000, 4295.38451034877200000000, 0.00000000000000000000, 4.00000000000000000000, 4.00000000000000000000, 4.00000000000000000000, 4.00000000000000000000, 4.00000000000000000000, 4.00000000000000000000, 4.00000000000000000000, 4.00000000000000000000, 4.00000000000000000000, 4.00000000000000000000, 4.00000000000000000000, 4.00000000000000000000, 4.00000000000000000000, 4.00000000000000000000, 4.00000000000000000000, 4.00000000000000000000, 1653.00000000000000000000, 1692.00000000000000000000, 0.00000000000000000000
24.00000000000000000000, 0.00000000000000000000, 4073.33323372735140000000, 4674.35886005600060000000, 4220.51271730783080000000, 4623.58963052823860000000, 4294.87168984849180000000, 4812.30757463143250000000, 4290.76912584624820000000, 4317.43579186083020000000, 4494.87168495785410000000, 4892.82039317545790000000, 4441.53835292869100000000, 4214.87169180474670000000, 4577.94860600328230000000, 4297.43579234989370000000, 0.00000000000000000000, 4.00000000000000000000, 4.00000000000000000000, 4.00000000000000000000, 4.00000000000000000000, 4.00000000000000000000, 4.00000000000000000000, 4.00000000000000000000, 4.00000000000000000000, 4.00000000000000000000, 4.00000000000000000000, 4.00000000000000000000, 4.00000000000000000000, 4.00000000000000000000, 4.00000000000000000000, 4.00000000000000000000, 4.00000000000000000000, 1652.00000000000000000000, 1692.00000000000000000000, 0.00000000000000000000
25.00000000000000000000, 0.00000000000000000000, 4070.76913122594940000000, 4677.43578305768280000000, 4219.48707630727040000000, 4627.17937403020190000000, 4292.82040784737000000000, 4812.82039513171280000000, 4293.84604884793040000000, 4315.89733035998870000000, 4493.84604395729370000000, 4894.87167517657960000000, 4443.58963492981270000000, 4215.38451230502690000000, 4574.35886250131900000000, 4295.38451034877200000000, 0.00000000000000000000, 4.00000000000000000000, 4.00000000000000000000, 4.00000000000000000000, 4.00000000000000000000, 4.00000000000000000000, 4.00000000000000000000, 4.00000000000000000000, 4.00000000000000000000, 4.00000000000000000000, 4.00000000000000000000, 4.00000000000000000000, 4.00000000000000000000, 4.00000000000000000000, 4.00000000000000000000, 4.00000000000000000000, 4.00000000000000000000, 1652.00000000000000000000, 1691.00000000000000000000, 0.00000000000000000000
26.00000000000000000000, 0.00000000000000000000, 4067.69220822426720000000, 4674.87168055628080000000, 4221.02553780811190000000, 4624.61527152879990000000, 4291.28194634652850000000, 4812.82039513171280000000, 4287.17938234428580000000, 4311.79476635774520000000, 4491.79476195617190000000, 4894.35885467629940000000, 4445.12809643065430000000, 4216.41015330558820000000, 4571.28193949963680000000, 4291.79476684680960000000, 0.00000000000000000000, 4.00000000000000000000, 4.00000000000000000000, 4.00000000000000000000, 4.00000000000000000000, 4.00000000000000000000, 4.00000000000000000000, 4.00000000000000000000, 4.00000000000000000000, 4.00000000000000000000, 4.00000000000000000000, 4.00000000000000000000, 4.00000000000000000000, 4.00000000000000000000, 4.00000000000000000000, 4.00000000000000000000, 4.00000000000000000000, 1651.00000000000000000000, 1692.00000000000000000000, 0.00000000000000000000
27.00000000000000000000, 0.00000000000000000000, 4074.35887472791230000000, 4673.84603955571950000000, 4230.25630681315940000000, 4624.61527152879990000000, 4292.30758734708980000000, 4814.87167713283450000000, 4287.17938234428580000000, 4313.84604835886690000000, 4491.28194145589170000000, 4890.25629067405590000000, 4443.58963492981270000000, 4216.92297380586840000000, 4571.28193949963680000000, 4294.87168984849180000000, 0.00000000000000000000, 4.00000000000000000000, 4.00000000000000000000, 4.00000000000000000000, 4.00000000000000000000, 4.00000000000000000000, 4.00000000000000000000, 4.00000000000000000000, 4.00000000000000000000, 4.00000000000000000000, 4.00000000000000000000, 4.00000000000000000000, 4.00000000000000000000, 4.00000000000000000000, 4.00000000000000000000, 4.00000000000000000000, 4.00000000000000000000, 1653.00000000000000000000, 1691.00000000000000000000, 0.00000000000000000000
28.00000000000000000000, 0.00000000000000000000, 4082.05118223211870000000, 4679.48706505880450000000, 4235.38451181596340000000, 4629.74347653160380000000, 4293.84604884793040000000, 4814.87167713283450000000, 4289.74348484568780000000, 4314.87168935942830000000, 4489.74347995505010000000, 4890.25629067405590000000, 4444.61527593037320000000, 4217.43579430614860000000, 4571.79475999991700000000, 4298.97425385073530000000, 0.00000000000000000000, 4.00000000000000000000, 4.00000000000000000000, 4.00000000000000000000, 4.00000000000000000000, 4.00000000000000000000, 4.00000000000000000000, 4.00000000000000000000, 4.00000000000000000000, 4.00000000000000000000, 4.00000000000000000000, 4.00000000000000000000, 4.00000000000000000000, 4.00000000000000000000, 4.00000000000000000000, 4.00000000000000000000, 4.00000000000000000000, 1650.00000000000000000000, 1691.00000000000000000000, 0.00000000000000000000
29.00000000000000000000, 0.00000000000000000000, 4083.58964373295980000000, 4681.53834705992630000000, 4233.33322981484160000000, 4631.28193803244540000000, 4295.38451034877200000000, 4813.33321563199300000000, 4286.15374134372450000000, 4312.30758685802630000000, 4490.76912095561060000000, 4892.30757267517770000000, 4444.61527593037320000000, 4216.41015330558820000000, 4571.28193949963680000000, 4298.46143335045510000000, 0.00000000000000000000, 4.00000000000000000000, 4.00000000000000000000, 4.00000000000000000000, 4.00000000000000000000, 4.00000000000000000000, 4.00000000000000000000, 4.00000000000000000000, 4.00000000000000000000, 4.00000000000000000000, 4.00000000000000000000, 4.00000000000000000000, 4.00000000000000000000, 4.00000000000000000000, 4.00000000000000000000, 4.00000000000000000000, 4.00000000000000000000, 1651.00000000000000000000, 1692.00000000000000000000, 0.00000000000000000000
30.00000000000000000000, 0.00000000000000000000, 4084.10246423324040000000, 4677.43578305768280000000, 4233.33322981484160000000, 4630.76911753216520000000, 4296.41015134933330000000, 4813.84603613227410000000, 4282.05117734148100000000, 4311.79476635774520000000, 4488.20501845420860000000, 4885.64090617153220000000, 4438.46142992700880000000, 4216.41015330558820000000, 4567.69219599767350000000, 4297.94861285017400000000, 0.00000000000000000000, 4.00000000000000000000, 4.00000000000000000000, 4.00000000000000000000, 4.00000000000000000000, 4.00000000000000000000, 4.00000000000000000000, 4.00000000000000000000, 4.00000000000000000000, 4.00000000000000000000, 4.00000000000000000000, 4.00000000000000000000, 4.00000000000000000000, 4.00000000000000000000, 4.00000000000000000000, 4.00000000000000000000, 4.00000000000000000000, 1651.00000000000000000000, 1691.00000000000000000000, 0.00000000000000000000
31.00000000000000000000, 0.00000000000000000000, 4083.58964373295980000000, 4677.94860355796300000000, 4235.38451181596340000000, 4630.76911753216520000000, 4294.35886934821160000000, 4813.84603613227410000000, 4278.46143383951860000000, 4309.74348435662340000000, 4476.92296744803930000000, 4873.33321416480160000000, 4432.30758392364350000000, 4214.35887130446640000000, 4559.99988849346760000000, 4297.43579234989370000000, 0.00000000000000000000, 4.00000000000000000000, 4.00000000000000000000, 4.00000000000000000000, 4.00000000000000000000, 4.00000000000000000000, 4.00000000000000000000, 4.00000000000000000000, 4.00000000000000000000, 4.00000000000000000000, 4.00000000000000000000, 4.00000000000000000000, 4.00000000000000000000, 4.00000000000000000000, 4.00000000000000000000, 4.00000000000000000000, 4.00000000000000000000, 1649.00000000000000000000, 1692.00000000000000000000, 0.00000000000000000000
32.00000000000000000000, 0.00000000000000000000, 4086.66656673464240000000, 4685.12809056188870000000, 4238.46143481764560000000, 4632.82039953328600000000, 4293.84604884793040000000, 4811.79475413115230000000, 4277.43579283895720000000, 4307.69220235550260000000, 4474.87168544691850000000, 4874.35885516536290000000, 4436.41014792588700000000, 4214.35887130446640000000, 4559.99988849346760000000, 4298.46143335045510000000, 0.00000000000000000000, 4.00000000000000000000, 4.00000000000000000000, 4.00000000000000000000, 4.00000000000000000000, 4.00000000000000000000, 4.00000000000000000000, 4.00000000000000000000, 4.00000000000000000000, 4.00000000000000000000, 4.00000000000000000000, 4.00000000000000000000, 4.00000000000000000000, 4.00000000000000000000, 4.00000000000000000000, 4.00000000000000000000, 4.00000000000000000000, 1650.00000000000000000000, 1691.00000000000000000000, 0.00000000000000000000
33.00000000000000000000, 0.00000000000000000000, 4094.87169473912900000000, 4690.25629556469360000000, 4246.66656282213260000000, 4637.94860453609090000000, 4296.41015134933330000000, 4813.33321563199300000000, 4282.05117734148100000000, 4312.82040735830650000000, 4488.71783895448970000000, 4887.17936767237370000000, 4447.17937843177510000000, 4223.07681980923370000000, 4573.33322150075860000000, 4307.69220235550260000000, 0.00000000000000000000, 4.00000000000000000000, 4.00000000000000000000, 4.00000000000000000000, 4.00000000000000000000, 4.00000000000000000000, 4.00000000000000000000, 4.00000000000000000000, 4.00000000000000000000, 4.00000000000000000000, 4.00000000000000000000, 4.00000000000000000000, 4.00000000000000000000, 4.00000000000000000000, 4.00000000000000000000, 4.00000000000000000000, 4.00000000000000000000, 1648.00000000000000000000, 1691.00000000000000000000, 0.00000000000000000000
34.00000000000000000000, 0.00000000000000000000, 4095.89733573968990000000, 4689.74347506441250000000, 4246.66656282213260000000, 4637.94860453609090000000, 4296.41015134933330000000, 4816.41013863367610000000, 4289.23066434540670000000, 4318.97425336167090000000, 4495.38450545813430000000, 4893.84603417601830000000, 4454.35886543570180000000, 4231.79476831400010000000, 4585.64091350748820000000, 4313.84604835886690000000, 0.00000000000000000000, 4.00000000000000000000, 4.00000000000000000000, 4.00000000000000000000, 4.00000000000000000000, 4.00000000000000000000, 4.00000000000000000000, 4.00000000000000000000, 4.00000000000000000000, 4.00000000000000000000, 4.00000000000000000000, 4.00000000000000000000, 4.00000000000000000000, 4.00000000000000000000, 4.00000000000000000000, 4.00000000000000000000, 4.00000000000000000000, 1649.00000000000000000000, 1690.00000000000000000000, 0.00000000000000000000
35.00000000000000000000, 0.00000000000000000000, 4090.76913073688590000000, 4689.23065456413220000000, 4236.92297331680490000000, 4634.87168153440780000000, 4294.87168984849180000000, 4814.35885663255430000000, 4294.35886934821160000000, 4319.48707386195200000000, 4492.82040295673230000000, 4893.84603417601830000000, 4458.46142943794440000000, 4231.28194781371990000000, 4586.15373400776840000000, 4310.25630485690450000000, 0.00000000000000000000, 4.00000000000000000000, 4.00000000000000000000, 4.00000000000000000000, 4.00000000000000000000, 4.00000000000000000000, 4.00000000000000000000, 4.00000000000000000000, 4.00000000000000000000, 4.00000000000000000000, 4.00000000000000000000, 4.00000000000000000000, 4.00000000000000000000, 4.00000000000000000000, 4.00000000000000000000, 4.00000000000000000000, 4.00000000000000000000, 1648.00000000000000000000, 1690.00000000000000000000, 0.00000000000000000000
36.00000000000000000000, 0.00000000000000000000, 4088.71784873576420000000, 4687.69219306329070000000, 4237.43579381708510000000, 4636.92296353552960000000, 4295.89733084905220000000, 4810.76911313059100000000, 4289.23066434540670000000, 4318.97425336167090000000, 4493.84604395729370000000, 4893.33321367573810000000, 4458.97424993822550000000, 4226.15374281091590000000, 4584.61527250692690000000, 4309.74348435662340000000, 0.00000000000000000000, 4.00000000000000000000, 4.00000000000000000000, 4.00000000000000000000, 4.00000000000000000000, 4.00000000000000000000, 4.00000000000000000000, 4.00000000000000000000, 4.00000000000000000000, 4.00000000000000000000, 4.00000000000000000000, 4.00000000000000000000, 4.00000000000000000000, 4.00000000000000000000, 4.00000000000000000000, 4.00000000000000000000, 4.00000000000000000000, 1648.00000000000000000000, 1691.00000000000000000000, 0.00000000000000000000
37.00000000000000000000, 0.00000000000000000000, 4091.79477173744680000000, 4689.74347506441250000000, 4242.05117831960890000000, 4639.99988653721270000000, 4296.92297184961350000000, 4811.79475413115230000000, 4281.53835684120080000000, 4320.51271486251240000000, 4495.38450545813430000000, 4893.84603417601830000000, 4452.30758343458000000000, 4221.53835830839220000000, 4586.15373400776840000000, 4310.76912535718470000000, 0.00000000000000000000, 4.00000000000000000000, 4.00000000000000000000, 4.00000000000000000000, 4.00000000000000000000, 4.00000000000000000000, 4.00000000000000000000, 4.00000000000000000000, 4.00000000000000000000, 4.00000000000000000000, 4.00000000000000000000, 4.00000000000000000000, 4.00000000000000000000, 4.00000000000000000000, 4.00000000000000000000, 4.00000000000000000000, 4.00000000000000000000, 1647.00000000000000000000, 1690.00000000000000000000, 0.00000000000000000000
38.00000000000000000000, 0.00000000000000000000, 4092.82041273800720000000, 4694.87168006721730000000, 4236.41015281652380000000, 4636.92296353552960000000, 4295.38451034877200000000, 4813.33321563199300000000, 4281.02553634092060000000, 4317.43579186083020000000, 4494.87168495785410000000, 4894.87167517657960000000, 4448.71783993261670000000, 4218.46143530671000000000, 4582.56399050580600000000, 4303.07681785297880000000, 0.00000000000000000000, 4.00000000000000000000, 4.00000000000000000000, 4.00000000000000000000, 4.00000000000000000000, 4.00000000000000000000, 4.00000000000000000000, 4.00000000000000000000, 4.00000000000000000000, 4.00000000000000000000, 4.00000000000000000000, 4.00000000000000000000, 4.00000000000000000000, 4.00000000000000000000, 4.00000000000000000000, 4.00000000000000000000, 4.00000000000000000000, 1648.00000000000000000000, 1690.00000000000000000000, 0.00000000000000000000
39.00000000000000000000, 0.00000000000000000000, 4086.15374623436220000000, 4694.35885956693620000000, 4231.28194781371990000000, 4631.28193803244540000000, 4292.82040784737000000000, 4810.76911313059100000000, 4281.53835684120080000000, 4311.28194585746500000000, 4494.35886445757390000000, 4893.33321367573810000000, 4452.82040393486020000000, 4217.43579430614860000000, 4575.38450350187940000000, 4295.89733084905220000000, 0.00000000000000000000, 4.00000000000000000000, 4.00000000000000000000, 4.00000000000000000000, 4.00000000000000000000, 4.00000000000000000000, 4.00000000000000000000, 4.00000000000000000000, 4.00000000000000000000, 4.00000000000000000000, 4.00000000000000000000, 4.00000000000000000000, 4.00000000000000000000, 4.00000000000000000000, 4.00000000000000000000, 4.00000000000000000000, 4.00000000000000000000, 1646.00000000000000000000, 1690.00000000000000000000, 0.00000000000000000000
40.00000000000000000000, 0.00000000000000000000, 4082.56400273239930000000, 4691.79475706553420000000, 4234.87169131568320000000, 4632.30757903300580000000, 4293.84604884793040000000, 4810.25629263031080000000, 4278.46143383951860000000, 4310.76912535718470000000, 4492.82040295673230000000, 4891.79475217489740000000, 4453.33322443514040000000, 4217.43579430614860000000, 4572.30758050019720000000, 4297.94861285017400000000, 0.00000000000000000000, 4.00000000000000000000, 4.00000000000000000000, 4.00000000000000000000, 4.00000000000000000000, 4.00000000000000000000, 4.00000000000000000000, 4.00000000000000000000, 4.00000000000000000000, 4.00000000000000000000, 4.00000000000000000000, 4.00000000000000000000, 4.00000000000000000000, 4.00000000000000000000, 4.00000000000000000000, 4.00000000000000000000, 4.00000000000000000000, 1646.00000000000000000000, 1691.00000000000000000000, 0.00000000000000000000
41.00000000000000000000, 0.00000000000000000000, 4083.58964373295980000000, 4695.89732106777770000000, 4237.94861431736540000000, 4638.46142503637110000000, 4297.43579234989370000000, 4812.30757463143250000000, 4279.48707484007900000000, 4312.82040735830650000000, 4491.28194145589170000000, 4888.71782917321430000000, 4447.17937843177510000000, 4218.46143530671000000000, 4572.82040100047740000000, 4298.46143335045510000000, 0.00000000000000000000, 4.00000000000000000000, 4.00000000000000000000, 4.00000000000000000000, 4.00000000000000000000, 4.00000000000000000000, 4.00000000000000000000, 4.00000000000000000000, 4.00000000000000000000, 4.00000000000000000000, 4.00000000000000000000, 4.00000000000000000000, 4.00000000000000000000, 4.00000000000000000000, 4.00000000000000000000, 4.00000000000000000000, 4.00000000000000000000, 1645.00000000000000000000, 1690.00000000000000000000, 0.00000000000000000000
42.00000000000000000000, 0.00000000000000000000, 4081.02554123155780000000, 4696.41014156805800000000, 4234.87169131568320000000, 4638.46142503637110000000, 4295.89733084905220000000, 4811.79475413115230000000, 4280.51271584064030000000, 4311.79476635774520000000, 4490.25630045533030000000, 4881.02552166900840000000, 4442.56399392925140000000, 4214.35887130446640000000, 4567.69219599767350000000, 4289.23066434540670000000, 0.00000000000000000000, 4.00000000000000000000, 4.00000000000000000000, 4.00000000000000000000, 4.00000000000000000000, 4.00000000000000000000, 4.00000000000000000000, 4.00000000000000000000, 4.00000000000000000000, 4.00000000000000000000, 4.00000000000000000000, 4.00000000000000000000, 4.00000000000000000000, 4.00000000000000000000, 4.00000000000000000000, 4.00000000000000000000, 4.00000000000000000000, 1643.00000000000000000000, 1691.00000000000000000000, 0.00000000000000000000
43.00000000000000000000, 0.00000000000000000000, 4073.33323372735140000000, 4689.23065456413220000000, 4232.30758881428120000000, 4629.74347653160380000000, 4292.30758734708980000000, 4810.76911313059100000000, 4276.41015183839680000000, 4308.20502285578280000000, 4487.69219795392840000000, 4874.87167566564310000000, 4436.41014792588700000000, 4204.10246129885760000000, 4557.43578599206560000000, 4279.99989534035920000000, 0.00000000000000000000, 4.00000000000000000000, 4.00000000000000000000, 4.00000000000000000000, 4.00000000000000000000, 4.00000000000000000000, 4.00000000000000000000, 4.00000000000000000000, 4.00000000000000000000, 4.00000000000000000000, 4.00000000000000000000, 4.00000000000000000000, 4.00000000000000000000, 4.00000000000000000000, 4.00000000000000000000, 4.00000000000000000000, 4.00000000000000000000, 1644.00000000000000000000, 1690.00000000000000000000, 0.00000000000000000000
44.00000000000000000000, 0.00000000000000000000, 4067.69220822426720000000, 4686.15373156245000000000, 4228.71784531231790000000, 4626.15373302964140000000, 4294.35886934821160000000, 4811.79475413115230000000, 4276.41015183839680000000, 4308.20502285578280000000, 4487.69219795392840000000, 4874.87167566564310000000, 4431.79476342336330000000, 4198.46143579577350000000, 4549.74347848785870000000, 4277.94861333923840000000, 0.00000000000000000000, 4.00000000000000000000, 4.00000000000000000000, 4.00000000000000000000, 4.00000000000000000000, 4.00000000000000000000, 4.00000000000000000000, 4.00000000000000000000, 4.00000000000000000000, 4.00000000000000000000, 4.00000000000000000000, 4.00000000000000000000, 4.00000000000000000000, 4.00000000000000000000, 4.00000000000000000000, 4.00000000000000000000, 4.00000000000000000000, 1641.00000000000000000000, 1692.00000000000000000000, 0.00000000000000000000
45.00000000000000000000, 0.00000000000000000000, 4070.25631072566920000000, 4690.25629556469360000000, 4228.20502481203770000000, 4629.74347653160380000000, 4298.46143335045510000000, 4814.87167713283450000000, 4279.99989534035920000000, 4309.74348435662340000000, 4487.69219795392840000000, 4876.41013716648470000000, 4435.38450692532570000000, 4200.51271779689520000000, 4552.30758098926070000000, 4276.92297233867700000000, 0.00000000000000000000, 4.00000000000000000000, 4.00000000000000000000, 4.00000000000000000000, 4.00000000000000000000, 4.00000000000000000000, 4.00000000000000000000, 4.00000000000000000000, 4.00000000000000000000, 4.00000000000000000000, 4.00000000000000000000, 4.00000000000000000000, 4.00000000000000000000, 4.00000000000000000000, 4.00000000000000000000, 4.00000000000000000000, 4.00000000000000000000, 1641.00000000000000000000, 1692.00000000000000000000, 0.00000000000000000000
46.00000000000000000000, 0.00000000000000000000, 4074.87169522819290000000, 4692.82039806609550000000, 4231.28194781371990000000, 4632.30757903300580000000, 4298.97425385073530000000, 4816.92295913395630000000, 4281.02553634092060000000, 4310.25630485690450000000, 4484.10245445196600000000, 4876.92295766676490000000, 4436.41014792588700000000, 4203.07682029829720000000, 4552.82040148954180000000, 4278.46143383951860000000, 0.00000000000000000000, 4.00000000000000000000, 4.00000000000000000000, 4.00000000000000000000, 4.00000000000000000000, 4.00000000000000000000, 4.00000000000000000000, 4.00000000000000000000, 4.00000000000000000000, 4.00000000000000000000, 4.00000000000000000000, 4.00000000000000000000, 4.00000000000000000000, 4.00000000000000000000, 4.00000000000000000000, 4.00000000000000000000, 4.00000000000000000000, 1638.00000000000000000000, 1692.00000000000000000000, 0.00000000000000000000
47.00000000000000000000, 0.00000000000000000000, 4075.89733622875380000000, 4692.30757756581440000000, 4233.33322981484160000000, 4631.28193803244540000000, 4296.92297184961350000000, 4815.38449763311470000000, 4279.99989534035920000000, 4310.76912535718470000000, 4484.10245445196600000000, 4875.89731666620450000000, 4429.23066092196130000000, 4202.05117929773590000000, 4542.56399148393300000000, 4278.46143383951860000000, 0.00000000000000000000, 4.00000000000000000000, 4.00000000000000000000, 4.00000000000000000000, 4.00000000000000000000, 4.00000000000000000000, 4.00000000000000000000, 4.00000000000000000000, 4.00000000000000000000, 4.00000000000000000000, 4.00000000000000000000, 4.00000000000000000000, 4.00000000000000000000, 4.00000000000000000000, 4.00000000000000000000, 4.00000000000000000000, 4.00000000000000000000, 1637.00000000000000000000, 1692.00000000000000000000, 0.00000000000000000000
48.00000000000000000000, 0.00000000000000000000, 4072.82041322707120000000, 4690.25629556469360000000, 4232.82040931456140000000, 4631.79475853272560000000, 4296.41015134933330000000, 4811.79475413115230000000, 4279.48707484007900000000, 4312.82040735830650000000, 4488.71783895448970000000, 4873.33321416480160000000, 4426.66655842055840000000, 4198.46143579577350000000, 4534.35886347944600000000, 4271.28194683559290000000, 0.00000000000000000000, 4.00000000000000000000, 4.00000000000000000000, 4.00000000000000000000, 4.00000000000000000000, 4.00000000000000000000, 4.00000000000000000000, 4.00000000000000000000, 4.00000000000000000000, 4.00000000000000000000, 4.00000000000000000000, 4.00000000000000000000, 4.00000000000000000000, 4.00000000000000000000, 4.00000000000000000000, 4.00000000000000000000, 4.00000000000000000000, 1635.00000000000000000000, 1692.00000000000000000000, 0.00000000000000000000
49.00000000000000000000, 0.00000000000000000000, 4070.25631072566920000000, 4690.25629556469360000000, 4230.76912731343960000000, 4631.28193803244540000000, 4295.89733084905220000000, 4812.82039513171280000000, 4279.48707484007900000000, 4310.76912535718470000000, 4486.66655695336790000000, 4872.82039366452140000000, 4428.20501992140000000000, 4196.92297429493190000000, 4535.38450448000730000000, 4263.07681883110580000000, 0.00000000000000000000, 4.00000000000000000000, 4.00000000000000000000, 4.00000000000000000000, 4.00000000000000000000, 4.00000000000000000000, 4.00000000000000000000, 4.00000000000000000000, 4.00000000000000000000, 4.00000000000000000000, 4.00000000000000000000, 4.00000000000000000000, 4.00000000000000000000, 4.00000000000000000000, 4.00000000000000000000, 4.00000000000000000000, 4.00000000000000000000, 1634.00000000000000000000, 1692.00000000000000000000, 0.00000000000000000000
50.00000000000000000000, 0.00000000000000000000, 4070.76913122594940000000, 4692.30757756581440000000, 4229.23066581259810000000, 4628.20501503076230000000, 4293.33322834765020000000, 4811.79475413115230000000, 4278.46143383951860000000, 4301.53835635213730000000, 4478.46142894888090000000, 4875.38449616592330000000, 4427.17937892083960000000, 4198.46143579577350000000, 4535.89732498028750000000, 4261.53835733026430000000, 0.00000000000000000000, 4.00000000000000000000, 4.00000000000000000000, 4.00000000000000000000, 4.00000000000000000000, 4.00000000000000000000, 4.00000000000000000000, 4.00000000000000000000, 4.00000000000000000000, 4.00000000000000000000, 4.00000000000000000000, 4.00000000000000000000, 4.00000000000000000000, 4.00000000000000000000, 4.00000000000000000000, 4.00000000000000000000, 4.00000000000000000000, 1632.00000000000000000000, 1694.00000000000000000000, 0.00000000000000000000
51.00000000000000000000, 0.00000000000000000000, 4072.82041322707120000000, 4694.87168006721730000000, 4230.25630681315940000000, 4627.17937403020190000000, 4290.76912584624820000000, 4803.07680562638510000000, 4276.92297233867700000000, 4292.30758734708980000000, 4472.82040344579670000000, 4873.84603466508270000000, 4432.30758392364350000000, 4199.99989729661500000000, 4538.97424798197060000000, 4265.64092133250780000000, 0.00000000000000000000, 4.00000000000000000000, 4.00000000000000000000, 4.00000000000000000000, 4.00000000000000000000, 4.00000000000000000000, 4.00000000000000000000, 4.00000000000000000000, 4.00000000000000000000, 4.00000000000000000000, 4.00000000000000000000, 4.00000000000000000000, 4.00000000000000000000, 4.00000000000000000000, 4.00000000000000000000, 4.00000000000000000000, 4.00000000000000000000, 1629.00000000000000000000, 1694.00000000000000000000, 0.00000000000000000000
52.00000000000000000000, 0.00000000000000000000, 4075.89733622875380000000, 4699.48706456974110000000, 4233.33322981484160000000, 4630.25629703188410000000, 4292.30758734708980000000, 4801.53834412554350000000, 4274.87169033755530000000, 4295.89733084905220000000, 4474.35886494663740000000, 4873.33321416480160000000, 4442.05117342897120000000, 4201.02553829717540000000, 4550.76911948842010000000, 4275.38451083783550000000, 0.00000000000000000000, 4.00000000000000000000, 4.00000000000000000000, 4.00000000000000000000, 4.00000000000000000000, 4.00000000000000000000, 4.00000000000000000000, 4.00000000000000000000, 4.00000000000000000000, 4.00000000000000000000, 4.00000000000000000000, 4.00000000000000000000, 4.00000000000000000000, 4.00000000000000000000, 4.00000000000000000000, 4.00000000000000000000, 4.00000000000000000000, 1628.00000000000000000000, 1692.00000000000000000000, 0.00000000000000000000
53.00000000000000000000, 0.00000000000000000000, 4077.43579772959490000000, 4703.07680807170350000000, 4233.84605031512180000000, 4630.76911753216520000000, 4294.35886934821160000000, 4812.30757463143250000000, 4276.92297233867700000000, 4307.69220235550260000000, 4483.07681345140460000000, 4881.02552166900840000000, 4445.64091693093450000000, 4203.58964079857740000000, 4560.51270899374780000000, 4279.99989534035920000000, 0.00000000000000000000, 4.00000000000000000000, 4.00000000000000000000, 4.00000000000000000000, 4.00000000000000000000, 4.00000000000000000000, 4.00000000000000000000, 4.00000000000000000000, 4.00000000000000000000, 4.00000000000000000000, 4.00000000000000000000, 4.00000000000000000000, 4.00000000000000000000, 4.00000000000000000000, 4.00000000000000000000, 4.00000000000000000000, 4.00000000000000000000, 1625.00000000000000000000, 1694.00000000000000000000, 0.00000000000000000000
54.00000000000000000000, 0.00000000000000000000, 4078.97425923043600000000, 4703.07680807170350000000, 4230.25630681315940000000, 4629.23065603132360000000, 4293.33322834765020000000, 4815.89731813339490000000, 4278.97425433979880000000, 4310.76912535718470000000, 4488.20501845420860000000, 4885.12808567125190000000, 4443.07681442953250000000, 4202.05117929773590000000, 4558.46142699262600000000, 4270.25630583503150000000, 0.00000000000000000000, 4.00000000000000000000, 4.00000000000000000000, 4.00000000000000000000, 4.00000000000000000000, 4.00000000000000000000, 4.00000000000000000000, 4.00000000000000000000, 4.00000000000000000000, 4.00000000000000000000, 4.00000000000000000000, 4.00000000000000000000, 4.00000000000000000000, 4.00000000000000000000, 4.00000000000000000000, 4.00000000000000000000, 4.00000000000000000000, 1624.00000000000000000000, 1693.00000000000000000000, 0.00000000000000000000
55.00000000000000000000, 0.00000000000000000000, 4075.89733622875380000000, 4703.07680807170350000000, 4226.66656331119610000000, 4629.74347653160380000000, 4293.84604884793040000000, 4810.76911313059100000000, 4277.43579283895720000000, 4308.20502285578280000000, 4484.10245445196600000000, 4879.48706016816690000000, 4442.56399392925140000000, 4197.43579479521210000000, 4553.84604249010230000000, 4263.07681883110580000000, 0.00000000000000000000, 4.00000000000000000000, 4.00000000000000000000, 4.00000000000000000000, 4.00000000000000000000, 4.00000000000000000000, 4.00000000000000000000, 4.00000000000000000000, 4.00000000000000000000, 4.00000000000000000000, 4.00000000000000000000, 4.00000000000000000000, 4.00000000000000000000, 4.00000000000000000000, 4.00000000000000000000, 4.00000000000000000000, 4.00000000000000000000, 1621.00000000000000000000, 1694.00000000000000000000, 0.00000000000000000000
56.00000000000000000000, 0.00000000000000000000, 4074.35887472791230000000, 4704.10244907226480000000, 4227.17938381147630000000, 4630.76911753216520000000, 4295.89733084905220000000, 4810.76911313059100000000, 4272.82040833643350000000, 4308.20502285578280000000, 4481.53835195056310000000, 4874.87167566564310000000, 4443.07681442953250000000, 4197.43579479521210000000, 4552.82040148954180000000, 4264.61528033194740000000, 0.00000000000000000000, 4.00000000000000000000, 4.00000000000000000000, 4.00000000000000000000, 4.00000000000000000000, 4.00000000000000000000, 4.00000000000000000000, 4.00000000000000000000, 4.00000000000000000000, 4.00000000000000000000, 4.00000000000000000000, 4.00000000000000000000, 4.00000000000000000000, 4.00000000000000000000, 4.00000000000000000000, 4.00000000000000000000, 4.00000000000000000000, 1621.00000000000000000000, 1695.00000000000000000000, 0.00000000000000000000
57.00000000000000000000, 0.00000000000000000000, 4077.94861822987510000000, 4706.66655157366680000000, 4231.28194781371990000000, 4631.79475853272560000000, 4295.38451034877200000000, 4811.79475413115230000000, 4266.66656233306910000000, 4307.17938185522140000000, 4482.56399295112440000000, 4874.87167566564310000000, 4441.53835292869100000000, 4197.94861529549330000000, 4555.38450399094380000000, 4266.15374183278800000000, 0.00000000000000000000, 4.00000000000000000000, 4.00000000000000000000, 4.00000000000000000000, 4.00000000000000000000, 4.00000000000000000000, 4.00000000000000000000, 4.00000000000000000000, 4.00000000000000000000, 4.00000000000000000000, 4.00000000000000000000, 4.00000000000000000000, 4.00000000000000000000, 4.00000000000000000000, 4.00000000000000000000, 4.00000000000000000000, 4.00000000000000000000, 1617.00000000000000000000, 1695.00000000000000000000, 0.00000000000000000000
58.00000000000000000000, 0.00000000000000000000, 4078.46143873015580000000, 4710.25629507562920000000, 4232.30758881428120000000, 4633.84604053384740000000, 4294.35886934821160000000, 4810.76911313059100000000, 4268.20502383390980000000, 4307.69220235550260000000, 4479.48706994944220000000, 4874.35885516536290000000, 4441.53835292869100000000, 4196.92297429493190000000, 4553.33322198982210000000, 4265.12810083222760000000, 0.00000000000000000000, 4.00000000000000000000, 4.00000000000000000000, 4.00000000000000000000, 4.00000000000000000000, 4.00000000000000000000, 4.00000000000000000000, 4.00000000000000000000, 4.00000000000000000000, 4.00000000000000000000, 4.00000000000000000000, 4.00000000000000000000, 4.00000000000000000000, 4.00000000000000000000, 4.00000000000000000000, 4.00000000000000000000, 4.00000000000000000000, 1615.00000000000000000000, 1696.00000000000000000000, 0.00000000000000000000
59.00000000000000000000, 0.00000000000000000000, 4077.43579772959490000000, 4713.33321807731230000000, 4230.25630681315940000000, 4634.35886103412760000000, 4296.41015134933330000000, 4812.30757463143250000000, 4274.87169033755530000000, 4308.71784335606300000000, 4477.94860844860070000000, 4874.35885516536290000000, 4443.07681442953250000000, 4197.94861529549330000000, 4545.12809398533500000000, 4265.12810083222760000000, 0.00000000000000000000, 4.00000000000000000000, 4.00000000000000000000, 4.00000000000000000000, 4.00000000000000000000, 4.00000000000000000000, 4.00000000000000000000, 4.00000000000000000000, 4.00000000000000000000, 4.00000000000000000000, 4.00000000000000000000, 4.00000000000000000000, 4.00000000000000000000, 4.00000000000000000000, 4.00000000000000000000, 4.00000000000000000000, 4.00000000000000000000, 1613.00000000000000000000, 1696.00000000000000000000, 0.00000000000000000000
60.00000000000000000000, 0.00000000000000000000, 4076.41015672903400000000, 4712.30757707675090000000, 4230.76912731343960000000, 4632.82039953328600000000, 4294.87168984849180000000, 4807.17936962862860000000, 4270.76912633531170000000, 4303.07681785297880000000, 4477.94860844860070000000, 4868.71782966227780000000, 4438.46142992700880000000, 4197.43579479521210000000, 4538.46142748168950000000, 4263.07681883110580000000, 0.00000000000000000000, 4.00000000000000000000, 4.00000000000000000000, 4.00000000000000000000, 4.00000000000000000000, 4.00000000000000000000, 4.00000000000000000000, 4.00000000000000000000, 4.00000000000000000000, 4.00000000000000000000, 4.00000000000000000000, 4.00000000000000000000, 4.00000000000000000000, 4.00000000000000000000, 4.00000000000000000000, 4.00000000000000000000, 4.00000000000000000000, 1609.00000000000000000000, 1697.00000000000000000000, 0.00000000000000000000
61.00000000000000000000, 0.00000000000000000000, 4073.33323372735140000000, 4708.20501307450740000000, 4230.76912731343960000000, 4630.25629703188410000000, 4292.30758734708980000000, 4801.53834412554350000000, 4264.61528033194740000000, 4298.97425385073530000000, 4474.35886494663740000000, 4861.02552215807190000000, 4431.79476342336330000000, 4188.71784629044580000000, 4534.87168397972710000000, 4254.87169082661880000000, 0.00000000000000000000, 4.00000000000000000000, 4.00000000000000000000, 4.00000000000000000000, 4.00000000000000000000, 4.00000000000000000000, 4.00000000000000000000, 4.00000000000000000000, 4.00000000000000000000, 4.00000000000000000000, 4.00000000000000000000, 4.00000000000000000000, 4.00000000000000000000, 4.00000000000000000000, 4.00000000000000000000, 4.00000000000000000000, 4.00000000000000000000, 1607.00000000000000000000, 1697.00000000000000000000, 0.00000000000000000000
62.00000000000000000000, 0.00000000000000000000, 4071.79477222651030000000, 4709.23065407506870000000, 4228.71784531231790000000, 4630.25629703188410000000, 4293.84604884793040000000, 4807.69219012890880000000, 4272.30758783615330000000, 4306.66656135494120000000, 4480.51271095000270000000, 4867.17936816143720000000, 4432.82040442392370000000, 4182.56400028708050000000, 4534.35886347944600000000, 4247.17938332241280000000, 0.00000000000000000000, 4.00000000000000000000, 4.00000000000000000000, 4.00000000000000000000, 4.00000000000000000000, 4.00000000000000000000, 4.00000000000000000000, 4.00000000000000000000, 4.00000000000000000000, 4.00000000000000000000, 4.00000000000000000000, 4.00000000000000000000, 4.00000000000000000000, 4.00000000000000000000, 4.00000000000000000000, 4.00000000000000000000, 4.00000000000000000000, 1604.00000000000000000000, 1697.00000000000000000000, 0.00000000000000000000
63.00000000000000000000, 0.00000000000000000000, 4074.87169522819290000000, 4714.87167957815290000000, 4228.20502481203770000000, 4631.79475853272560000000, 4295.38451034877200000000, 4814.35885663255430000000, 4281.02553634092060000000, 4313.33322785858670000000, 4490.76912095561060000000, 4878.97423966788660000000, 4435.38450692532570000000, 4183.58964128764090000000, 4535.38450448000730000000, 4247.69220382269300000000, 0.00000000000000000000, 4.00000000000000000000, 4.00000000000000000000, 4.00000000000000000000, 4.00000000000000000000, 4.00000000000000000000, 4.00000000000000000000, 4.00000000000000000000, 4.00000000000000000000, 4.00000000000000000000, 4.00000000000000000000, 4.00000000000000000000, 4.00000000000000000000, 4.00000000000000000000, 4.00000000000000000000, 4.00000000000000000000, 4.00000000000000000000, 1603.00000000000000000000, 1697.00000000000000000000, 0.00000000000000000000
64.00000000000000000000, 0.00000000000000000000, 4076.41015672903400000000, 4720.51270508123800000000, 4228.71784531231790000000, 4633.84604053384740000000, 4296.92297184961350000000, 4813.84603613227410000000, 4277.43579283895720000000, 4303.58963835325900000000, 4484.61527495224620000000, 4875.89731666620450000000, 4432.82040442392370000000, 4185.64092328876270000000, 4531.79476097804400000000, 4249.74348582381480000000, 492.00000000000000000000, 4.00000000000000000000, 4.00000000000000000000, 4.00000000000000000000, 4.00000000000000000000, 4.00000000000000000000, 4.00000000000000000000, 4.00000000000000000000, 4.00000000000000000000, 4.00000000000000000000, 4.00000000000000000000, 4.00000000000000000000, 4.00000000000000000000, 4.00000000000000000000, 4.00000000000000000000, 4.00000000000000000000, 4.00000000000000000000, 1599.00000000000000000000, 1697.00000000000000000000, 0.00000000000000000000
65.00000000000000000000, 0.00000000000000000000, 4074.35887472791230000000, 4718.46142308011620000000, 4228.71784531231790000000, 4632.82039953328600000000, 4296.92297184961350000000, 4812.30757463143250000000, 4271.79476733587310000000, 4296.92297184961350000000, 4471.79476244523540000000, 4863.58962465947390000000, 4428.20501992140000000000, 4185.12810278848250000000, 4522.05117147271630000000, 4245.64092182157130000000, 506.00000000000000000000, 4.00000000000000000000, 4.00000000000000000000, 4.00000000000000000000, 4.00000000000000000000, 4.00000000000000000000, 4.00000000000000000000, 4.00000000000000000000, 4.00000000000000000000, 4.00000000000000000000, 4.00000000000000000000, 4.00000000000000000000, 4.00000000000000000000, 4.00000000000000000000, 4.00000000000000000000, 4.00000000000000000000, 4.00000000000000000000, 1597.00000000000000000000, 1697.00000000000000000000, 0.00000000000000000000
66.00000000000000000000, 0.00000000000000000000, 4071.79477222651030000000, 4713.84603857759250000000, 4228.71784531231790000000, 4628.71783553104340000000, 4293.33322834765020000000, 4812.82039513171280000000, 4274.87169033755530000000, 4303.58963835325900000000, 4476.92296744803930000000, 4863.58962465947390000000, 4429.23066092196130000000, 4183.58964128764090000000, 4523.07681247327760000000, 4242.56399881988910000000, 528.00000000000000000000, 4.00000000000000000000, 4.00000000000000000000, 4.00000000000000000000, 4.00000000000000000000, 4.00000000000000000000, 4.00000000000000000000, 4.00000000000000000000, 4.00000000000000000000, 4.00000000000000000000, 4.00000000000000000000, 4.00000000000000000000, 4.00000000000000000000, 4.00000000000000000000, 4.00000000000000000000, 4.00000000000000000000, 4.00000000000000000000, 1595.00000000000000000000, 1697.00000000000000000000, 0.00000000000000000000
67.00000000000000000000, 0.00000000000000000000, 4075.89733622875380000000, 4719.48706408067660000000, 4231.79476831400010000000, 4634.35886103412760000000, 4298.46143335045510000000, 4821.02552313619980000000, 4285.64092084344430000000, 4312.30758685802630000000, 4491.79476195617190000000, 4876.41013716648470000000, 4438.97425042728900000000, 4185.12810278848250000000, 4534.35886347944600000000, 4247.17938332241280000000, 522.00000000000000000000, 4.00000000000000000000, 4.00000000000000000000, 4.00000000000000000000, 4.00000000000000000000, 4.00000000000000000000, 4.00000000000000000000, 4.00000000000000000000, 4.00000000000000000000, 4.00000000000000000000, 4.00000000000000000000, 4.00000000000000000000, 4.00000000000000000000, 4.00000000000000000000, 4.00000000000000000000, 4.00000000000000000000, 4.00000000000000000000, 1593.00000000000000000000, 1696.00000000000000000000, 0.00000000000000000000
68.00000000000000000000, 0.00000000000000000000, 4079.48707973071670000000, 4727.17937158488350000000, 4233.33322981484160000000, 4642.05116853833440000000, 4305.64092035438080000000, 4828.20501014012550000000, 4286.66656184400470000000, 4311.79476635774520000000, 4491.28194145589170000000, 4878.97423966788660000000, 4441.02553242841080000000, 4186.15374378904290000000, 4531.79476097804400000000, 4248.71784482325440000000, 512.00000000000000000000, 4.00000000000000000000, 4.00000000000000000000, 4.00000000000000000000, 4.00000000000000000000, 4.00000000000000000000, 4.00000000000000000000, 4.00000000000000000000, 4.00000000000000000000, 4.00000000000000000000, 4.00000000000000000000, 4.00000000000000000000, 4.00000000000000000000, 4.00000000000000000000, 4.00000000000000000000, 4.00000000000000000000, 4.00000000000000000000, 1591.00000000000000000000, 1696.00000000000000000000, 0.00000000000000000000
69.00000000000000000000, 0.00000000000000000000, 4072.30759272679100000000, 4723.58962808292020000000, 4228.71784531231790000000, 4640.51270703749290000000, 4300.51271535157590000000, 4817.43577963423650000000, 4279.48707484007900000000, 4304.61527935381950000000, 4477.43578794832050000000, 4865.64090666059560000000, 4430.25630192252170000000, 4183.58964128764090000000, 4519.99988947159450000000, 4238.46143481764560000000, 493.00000000000000000000, 4.00000000000000000000, 4.00000000000000000000, 4.00000000000000000000, 4.00000000000000000000, 4.00000000000000000000, 4.00000000000000000000, 4.00000000000000000000, 4.00000000000000000000, 4.00000000000000000000, 4.00000000000000000000, 4.00000000000000000000, 4.00000000000000000000, 4.00000000000000000000, 4.00000000000000000000, 4.00000000000000000000, 4.00000000000000000000, 1588.00000000000000000000, 1696.00000000000000000000, 0.00000000000000000000
70.00000000000000000000, 0.00000000000000000000, 4066.15374672342570000000, 4720.51270508123800000000, 4227.17938381147630000000, 4637.43578403580980000000, 4295.38451034877200000000, 4808.20501062918900000000, 4275.38451083783550000000, 4297.94861285017400000000, 4472.82040344579670000000, 4857.94859915638970000000, 4425.64091741999800000000, 4181.02553878623890000000, 4515.38450496907080000000, 4230.25630681315940000000, 520.00000000000000000000, 4.00000000000000000000, 4.00000000000000000000, 4.00000000000000000000, 4.00000000000000000000, 4.00000000000000000000, 4.00000000000000000000, 4.00000000000000000000, 4.00000000000000000000, 4.00000000000000000000, 4.00000000000000000000, 4.00000000000000000000, 4.00000000000000000000, 4.00000000000000000000, 4.00000000000000000000, 4.00000000000000000000, 4.00000000000000000000, 1584.00000000000000000000, 1697.00000000000000000000, 0.00000000000000000000
71.00000000000000000000, 0.00000000000000000000, 4074.35887472791230000000, 4729.23065358600520000000, 4232.30758881428120000000, 4643.07680953889480000000, 4301.02553585185710000000, 4813.33321563199300000000, 4271.28194683559290000000, 4294.35886934821160000000, 4476.41014694775910000000, 4859.99988115751150000000, 4428.71784042168020000000, 4184.61528228820230000000, 4518.97424847103410000000, 4237.43579381708510000000, 387.00000000000000000000, 4.00000000000000000000, 4.00000000000000000000, 4.00000000000000000000, 4.00000000000000000000, 4.00000000000000000000, 4.00000000000000000000, 4.00000000000000000000, 4.00000000000000000000, 4.00000000000000000000, 4.00000000000000000000, 4.00000000000000000000, 4.00000000000000000000, 4.00000000000000000000, 4.00000000000000000000, 4.00000000000000000000, 4.00000000000000000000, 1581.00000000000000000000, 1696.00000000000000000000, 0.00000000000000000000
72.00000000000000000000, 0.00000000000000000000, 4086.66656673464240000000, 4740.51270459217360000000, 4235.38451181596340000000, 4651.79475804366210000000, 4304.10245885353920000000, 4813.33321563199300000000, 4264.61528033194740000000, 4294.35886934821160000000, 4474.35886494663740000000, 4856.92295815582840000000, 4429.23066092196130000000, 4186.66656428932400000000, 4520.51270997187480000000, 4249.23066532353460000000, 524.00000000000000000000, 4.00000000000000000000, 4.00000000000000000000, 4.00000000000000000000, 4.00000000000000000000, 4.00000000000000000000, 4.00000000000000000000, 4.00000000000000000000, 4.00000000000000000000, 4.00000000000000000000, 4.00000000000000000000, 4.00000000000000000000, 4.00000000000000000000, 4.00000000000000000000, 4.00000000000000000000, 4.00000000000000000000, 4.00000000000000000000, 1576.00000000000000000000, 1697.00000000000000000000, 0.00000000000000000000
73.00000000000000000000, 0.00000000000000000000, 4083.07682323267950000000, 4737.43578159049140000000, 4234.35887081540300000000, 4647.17937354113840000000, 4297.43579234989370000000, 4809.74347213003060000000, 4265.64092133250780000000, 4294.87168984849180000000, 4475.38450594719870000000, 4854.87167615470660000000, 4425.64091741999800000000, 4185.64092328876270000000, 4506.66655646430350000000, 4244.61528082101090000000, 461.00000000000000000000, 4.00000000000000000000, 4.00000000000000000000, 4.00000000000000000000, 4.00000000000000000000, 4.00000000000000000000, 4.00000000000000000000, 4.00000000000000000000, 4.00000000000000000000, 4.00000000000000000000, 4.00000000000000000000, 4.00000000000000000000, 4.00000000000000000000, 4.00000000000000000000, 4.00000000000000000000, 4.00000000000000000000, 4.00000000000000000000, 1575.00000000000000000000, 1696.00000000000000000000, 0.00000000000000000000
74.00000000000000000000, 0.00000000000000000000, 4070.76913122594940000000, 4723.07680758264000000000, 4234.35887081540300000000, 4638.46142503637110000000, 4294.35886934821160000000, 4813.84603613227410000000, 4271.28194683559290000000, 4295.89733084905220000000, 4482.56399295112440000000, 4858.46141965666990000000, 4424.61527641943760000000, 4184.10246178792200000000, 4492.82040295673230000000, 4233.84605031512180000000, 501.00000000000000000000, 4.00000000000000000000, 4.00000000000000000000, 4.00000000000000000000, 4.00000000000000000000, 4.00000000000000000000, 4.00000000000000000000, 4.00000000000000000000, 4.00000000000000000000, 4.00000000000000000000, 4.00000000000000000000, 4.00000000000000000000, 4.00000000000000000000, 4.00000000000000000000, 4.00000000000000000000, 4.00000000000000000000, 4.00000000000000000000, 1571.00000000000000000000, 1697.00000000000000000000, 0.00000000000000000000
75.00000000000000000000, 0.00000000000000000000, 4065.64092622314550000000, 4714.35885907787270000000, 4232.30758881428120000000, 4632.30757903300580000000, 4295.89733084905220000000, 4813.33321563199300000000, 4273.33322883671460000000, 4297.43579234989370000000, 4477.94860844860070000000, 4857.43577865610950000000, 4429.23066092196130000000, 4183.58964128764090000000, 4507.17937696458470000000, 4237.43579381708510000000, 497.00000000000000000000, 4.00000000000000000000, 4.00000000000000000000, 4.00000000000000000000, 4.00000000000000000000, 4.00000000000000000000, 4.00000000000000000000, 4.00000000000000000000, 4.00000000000000000000, 4.00000000000000000000, 4.00000000000000000000, 4.00000000000000000000, 4.00000000000000000000, 4.00000000000000000000, 4.00000000000000000000, 4.00000000000000000000, 4.00000000000000000000, 1570.00000000000000000000, 1698.00000000000000000000, 0.00000000000000000000
76.00000000000000000000, 0.00000000000000000000, 4068.20502872454740000000, 4707.69219257422720000000, 4228.71784531231790000000, 4624.61527152879990000000, 4296.92297184961350000000, 4812.82039513171280000000, 4275.89733133811660000000, 4303.07681785297880000000, 4471.28194194495520000000, 4855.89731715526800000000, 4441.53835292869100000000, 4184.61528228820230000000, 4539.48706848225080000000, 4245.12810132129110000000, 427.00000000000000000000, 4.00000000000000000000, 4.00000000000000000000, 4.00000000000000000000, 4.00000000000000000000, 4.00000000000000000000, 4.00000000000000000000, 4.00000000000000000000, 4.00000000000000000000, 4.00000000000000000000, 4.00000000000000000000, 4.00000000000000000000, 4.00000000000000000000, 4.00000000000000000000, 4.00000000000000000000, 4.00000000000000000000, 4.00000000000000000000, 1569.00000000000000000000, 1697.00000000000000000000, 0.00000000000000000000
77.00000000000000000000, 0.00000000000000000000, 4067.17938772398660000000, 4690.25629556469360000000, 4231.28194781371990000000, 4615.89732302403260000000, 4295.38451034877200000000, 4820.51270263591870000000, 4281.02553634092060000000, 4311.79476635774520000000, 4481.53835195056310000000, 4870.25629116311940000000, 4453.84604493542070000000, 4187.17938478960420000000, 4556.41014499150420000000, 4248.20502432297420000000, 479.00000000000000000000, 4.00000000000000000000, 4.00000000000000000000, 4.00000000000000000000, 4.00000000000000000000, 4.00000000000000000000, 4.00000000000000000000, 4.00000000000000000000, 4.00000000000000000000, 4.00000000000000000000, 4.00000000000000000000, 4.00000000000000000000, 4.00000000000000000000, 4.00000000000000000000, 4.00000000000000000000, 4.00000000000000000000, 4.00000000000000000000, 1568.00000000000000000000, 1697.00000000000000000000, 0.00000000000000000000
78.00000000000000000000, 0.00000000000000000000, 4056.92297771837820000000, 4668.20501405263530000000, 4231.79476831400010000000, 4605.12809251814360000000, 4295.38451034877200000000, 4823.58962563760180000000, 4282.56399784176210000000, 4312.82040735830650000000, 4491.28194145589170000000, 4885.64090617153220000000, 4459.99989093878590000000, 4186.66656428932400000000, 4563.58963199543000000000, 4245.12810132129110000000, 501.00000000000000000000, 4.00000000000000000000, 4.00000000000000000000, 4.00000000000000000000, 4.00000000000000000000, 4.00000000000000000000, 4.00000000000000000000, 4.00000000000000000000, 4.00000000000000000000, 4.00000000000000000000, 4.00000000000000000000, 4.00000000000000000000, 4.00000000000000000000, 4.00000000000000000000, 4.00000000000000000000, 4.00000000000000000000, 4.00000000000000000000, 1568.00000000000000000000, 1697.00000000000000000000, 0.00000000000000000000
79.00000000000000000000, 0.00000000000000000000, 4049.23067021417180000000, 4653.33321954450280000000, 4221.53835830839220000000, 4593.84604151197440000000, 4294.87168984849180000000, 4814.87167713283450000000, 4279.48707484007900000000, 4309.23066385634320000000, 4493.84604395729370000000, 4892.30757267517770000000, 4468.71783944355320000000, 4187.17938478960420000000, 4576.92296500272100000000, 4237.94861431736540000000, 497.00000000000000000000, 4.00000000000000000000, 4.00000000000000000000, 4.00000000000000000000, 4.00000000000000000000, 4.00000000000000000000, 4.00000000000000000000, 4.00000000000000000000, 4.00000000000000000000, 4.00000000000000000000, 4.00000000000000000000, 4.00000000000000000000, 4.00000000000000000000, 4.00000000000000000000, 4.00000000000000000000, 4.00000000000000000000, 4.00000000000000000000, 1568.00000000000000000000, 1697.00000000000000000000, 0.00000000000000000000
80.00000000000000000000, 0.00000000000000000000, 4048.20502921361140000000, 4645.64091204029680000000, 4214.87169180474670000000, 4590.25629801001200000000, 4293.84604884793040000000, 4810.25629263031080000000, 4277.94861333923840000000, 4312.82040735830650000000, 4499.99988996065800000000, 4899.48705967910340000000, 4475.89732644747890000000, 4186.66656428932400000000, 4586.15373400776840000000, 4236.92297331680490000000, 427.00000000000000000000, 4.00000000000000000000, 4.00000000000000000000, 4.00000000000000000000, 4.00000000000000000000, 4.00000000000000000000, 4.00000000000000000000, 4.00000000000000000000, 4.00000000000000000000, 4.00000000000000000000, 4.00000000000000000000, 4.00000000000000000000, 4.00000000000000000000, 4.00000000000000000000, 4.00000000000000000000, 4.00000000000000000000, 4.00000000000000000000, 1570.00000000000000000000, 1696.00000000000000000000, 0.00000000000000000000
81.00000000000000000000, 0.00000000000000000000, 4050.76913171501340000000, 4648.20501454169880000000, 4217.94861480642880000000, 4598.46142601449810000000, 4295.89733084905220000000, 4821.53834363648000000000, 4288.71784384512650000000, 4322.56399686363420000000, 4510.25629996626690000000, 4911.79475168583300000000, 4478.46142894888090000000, 4186.66656428932400000000, 4587.69219550861000000000, 4244.61528082101090000000, 479.00000000000000000000, 4.00000000000000000000, 4.00000000000000000000, 4.00000000000000000000, 4.00000000000000000000, 4.00000000000000000000, 4.00000000000000000000, 4.00000000000000000000, 4.00000000000000000000, 4.00000000000000000000, 4.00000000000000000000, 4.00000000000000000000, 4.00000000000000000000, 4.00000000000000000000, 4.00000000000000000000, 4.00000000000000000000, 4.00000000000000000000, 1571.00000000000000000000, 1697.00000000000000000000, 0.00000000000000000000
82.00000000000000000000, 0.00000000000000000000, 4052.30759321585450000000, 4652.82039904422250000000, 4219.99989680755060000000, 4602.05116951646140000000, 4298.97425385073530000000, 4827.17936913956420000000, 4296.41015134933330000000, 4328.71784286699950000000, 4516.41014596963210000000, 4916.92295668863790000000, 4486.15373645308680000000, 4193.33323079296950000000, 4591.79475951085350000000, 4247.17938332241280000000, 501.00000000000000000000, 4.00000000000000000000, 4.00000000000000000000, 4.00000000000000000000, 4.00000000000000000000, 4.00000000000000000000, 4.00000000000000000000, 4.00000000000000000000, 4.00000000000000000000, 4.00000000000000000000, 4.00000000000000000000, 4.00000000000000000000, 4.00000000000000000000, 4.00000000000000000000, 4.00000000000000000000, 4.00000000000000000000, 4.00000000000000000000, 1573.00000000000000000000, 1696.00000000000000000000, 0.00000000000000000000
83.00000000000000000000, 0.00000000000000000000, 4050.76913171501340000000, 4654.35886054506410000000, 4219.99989680755060000000, 4602.05116951646140000000, 4297.94861285017400000000, 4817.43577963423650000000, 4287.17938234428580000000, 4325.12809936503620000000, 4514.87168446879060000000, 4914.35885418723500000000, 4492.82040295673230000000, 4200.51271779689520000000, 4594.35886201225550000000, 4244.10246032073060000000, 497.00000000000000000000, 4.00000000000000000000, 4.00000000000000000000, 4.00000000000000000000, 4.00000000000000000000, 4.00000000000000000000, 4.00000000000000000000, 4.00000000000000000000, 4.00000000000000000000, 4.00000000000000000000, 4.00000000000000000000, 4.00000000000000000000, 4.00000000000000000000, 4.00000000000000000000, 4.00000000000000000000, 4.00000000000000000000, 4.00000000000000000000, 1574.00000000000000000000, 1697.00000000000000000000, 0.00000000000000000000
84.00000000000000000000, 0.00000000000000000000, 4052.30759321585450000000, 4658.97424504758780000000, 4226.66656331119610000000, 4606.15373351870490000000, 4294.35886934821160000000, 4811.79475413115230000000, 4277.43579283895720000000, 4317.94861236111050000000, 4508.20501796514510000000, 4909.74346968471130000000, 4483.07681345140460000000, 4201.02553829717540000000, 4589.74347750973170000000, 4245.64092182157130000000, 427.00000000000000000000, 4.00000000000000000000, 4.00000000000000000000, 4.00000000000000000000, 4.00000000000000000000, 4.00000000000000000000, 4.00000000000000000000, 4.00000000000000000000, 4.00000000000000000000, 4.00000000000000000000, 4.00000000000000000000, 4.00000000000000000000, 4.00000000000000000000, 4.00000000000000000000, 4.00000000000000000000, 4.00000000000000000000, 4.00000000000000000000, 1579.00000000000000000000, 1696.00000000000000000000, 0.00000000000000000000
85.00000000000000000000, 0.00000000000000000000, 4056.41015721809800000000, 4663.07680904983140000000, 4232.30758881428120000000, 4610.76911802122870000000, 4293.84604884793040000000, 4815.38449763311470000000, 4279.99989534035920000000, 4316.41015086026890000000, 4505.12809496346290000000, 4899.48705967910340000000, 4470.76912144467500000000, 4194.87169229381020000000, 4580.51270850468430000000, 4245.12810132129110000000, 479.00000000000000000000, 4.00000000000000000000, 4.00000000000000000000, 4.00000000000000000000, 4.00000000000000000000, 4.00000000000000000000, 4.00000000000000000000, 4.00000000000000000000, 4.00000000000000000000, 4.00000000000000000000, 4.00000000000000000000, 4.00000000000000000000, 4.00000000000000000000, 4.00000000000000000000, 4.00000000000000000000, 4.00000000000000000000, 4.00000000000000000000, 1580.00000000000000000000, 1696.00000000000000000000, 0.00000000000000000000
86.00000000000000000000, 0.00000000000000000000, 4059.99990072006090000000, 4667.17937305207400000000, 4230.76912731343960000000, 4618.46142552543460000000, 4295.38451034877200000000, 4816.92295913395630000000, 4285.64092084344430000000, 4323.07681736391440000000, 4508.71783846542530000000, 4892.30757267517770000000, 4472.30758294551560000000, 4193.33323079296950000000, 4579.48706750412290000000, 4246.15374232185240000000, 501.00000000000000000000, 4.00000000000000000000, 4.00000000000000000000, 4.00000000000000000000, 4.00000000000000000000, 4.00000000000000000000, 4.00000000000000000000, 4.00000000000000000000, 4.00000000000000000000, 4.00000000000000000000, 4.00000000000000000000, 4.00000000000000000000, 4.00000000000000000000, 4.00000000000000000000, 4.00000000000000000000, 4.00000000000000000000, 4.00000000000000000000, 1583.00000000000000000000, 1696.00000000000000000000, 0.00000000000000000000
87.00000000000000000000, 0.00000000000000000000, 4061.02554172062170000000, 4671.79475755459770000000, 4230.25630681315940000000, 4619.48706652599590000000, 4294.87168984849180000000, 4813.84603613227410000000, 4288.71784384512650000000, 4329.23066336727970000000, 4509.23065896570640000000, 4894.35885467629940000000, 4473.33322394607690000000, 4195.89733329437150000000, 4584.61527250692690000000, 4248.20502432297420000000, 497.00000000000000000000, 4.00000000000000000000, 4.00000000000000000000, 4.00000000000000000000, 4.00000000000000000000, 4.00000000000000000000, 4.00000000000000000000, 4.00000000000000000000, 4.00000000000000000000, 4.00000000000000000000, 4.00000000000000000000, 4.00000000000000000000, 4.00000000000000000000, 4.00000000000000000000, 4.00000000000000000000, 4.00000000000000000000, 4.00000000000000000000, 1585.00000000000000000000, 1695.00000000000000000000, 0.00000000000000000000
88.00000000000000000000, 0.00000000000000000000, 4065.12810572286480000000, 4672.30757805487880000000, 4231.79476831400010000000, 4615.38450252375240000000, 4293.84604884793040000000, 4814.35885663255430000000, 4291.79476684680960000000, 4329.23066336727970000000, 4506.66655646430350000000, 4901.02552117994490000000, 4475.89732644747890000000, 4199.48707679633390000000, 4584.61527250692690000000, 4248.71784482325440000000, 427.00000000000000000000, 4.00000000000000000000, 4.00000000000000000000, 4.00000000000000000000, 4.00000000000000000000, 4.00000000000000000000, 4.00000000000000000000, 4.00000000000000000000, 4.00000000000000000000, 4.00000000000000000000, 4.00000000000000000000, 4.00000000000000000000, 4.00000000000000000000, 4.00000000000000000000, 4.00000000000000000000, 4.00000000000000000000, 4.00000000000000000000, 1588.00000000000000000000, 1696.00000000000000000000, 0.00000000000000000000
89.00000000000000000000, 0.00000000000000000000, 4072.30759272679100000000, 4675.38450105656100000000, 4234.35887081540300000000, 4619.99988702627620000000, 4295.89733084905220000000, 4814.35885663255430000000, 4288.71784384512650000000, 4324.61527886475600000000, 4509.74347946598660000000, 4906.15372618274890000000, 4487.69219795392840000000, 4205.12810229941900000000, 4586.15373400776840000000, 4256.92297282774050000000, 479.00000000000000000000, 4.00000000000000000000, 4.00000000000000000000, 4.00000000000000000000, 4.00000000000000000000, 4.00000000000000000000, 4.00000000000000000000, 4.00000000000000000000, 4.00000000000000000000, 4.00000000000000000000, 4.00000000000000000000, 4.00000000000000000000, 4.00000000000000000000, 4.00000000000000000000, 4.00000000000000000000, 4.00000000000000000000, 4.00000000000000000000, 1592.00000000000000000000, 1695.00000000000000000000, 0.00000000000000000000
90.00000000000000000000, 0.00000000000000000000, 4072.82041322707120000000, 4678.46142405824320000000, 4237.43579381708510000000, 4625.12809202908010000000, 4295.89733084905220000000, 4815.38449763311470000000, 4284.10245934260270000000, 4322.56399686363420000000, 4510.25629996626690000000, 4907.69218768358950000000, 4489.74347995505010000000, 4208.71784580138140000000, 4585.12809300720800000000, 4259.99989582942360000000, 501.00000000000000000000, 4.00000000000000000000, 4.00000000000000000000, 4.00000000000000000000, 4.00000000000000000000, 4.00000000000000000000, 4.00000000000000000000, 4.00000000000000000000, 4.00000000000000000000, 4.00000000000000000000, 4.00000000000000000000, 4.00000000000000000000, 4.00000000000000000000, 4.00000000000000000000, 4.00000000000000000000, 4.00000000000000000000, 4.00000000000000000000, 1594.00000000000000000000, 1696.00000000000000000000, 0.00000000000000000000
91.00000000000000000000, 0.00000000000000000000, 4068.71784922482770000000, 4676.41014205712240000000, 4236.41015281652380000000, 4620.51270752655640000000, 4293.84604884793040000000, 4815.38449763311470000000, 4279.99989534035920000000, 4324.61527886475600000000, 4506.66655646430350000000, 4905.64090568246870000000, 4477.43578794832050000000, 4207.17938430054070000000, 4576.92296500272100000000, 4251.79476782493660000000, 497.00000000000000000000, 4.00000000000000000000, 4.00000000000000000000, 4.00000000000000000000, 4.00000000000000000000, 4.00000000000000000000, 4.00000000000000000000, 4.00000000000000000000, 4.00000000000000000000, 4.00000000000000000000, 4.00000000000000000000, 4.00000000000000000000, 4.00000000000000000000, 4.00000000000000000000, 4.00000000000000000000, 4.00000000000000000000, 4.00000000000000000000, 1599.00000000000000000000, 1696.00000000000000000000, 0.00000000000000000000
92.00000000000000000000, 0.00000000000000000000, 4066.66656722370640000000, 4676.92296255740260000000, 4234.35887081540300000000, 4618.97424602571480000000, 4294.35886934821160000000, 4814.35885663255430000000, 4279.48707484007900000000, 4326.15374036559750000000, 4505.64091546374310000000, 4901.53834168022510000000, 4472.82040344579670000000, 4202.56399979801700000000, 4569.23065749851500000000, 4249.23066532353460000000, 427.00000000000000000000, 4.00000000000000000000, 4.00000000000000000000, 4.00000000000000000000, 4.00000000000000000000, 4.00000000000000000000, 4.00000000000000000000, 4.00000000000000000000, 4.00000000000000000000, 4.00000000000000000000, 4.00000000000000000000, 4.00000000000000000000, 4.00000000000000000000, 4.00000000000000000000, 4.00000000000000000000, 4.00000000000000000000, 4.00000000000000000000, 1602.00000000000000000000, 1696.00000000000000000000, 0.00000000000000000000
93.00000000000000000000, 0.00000000000000000000, 4068.71784922482770000000, 4681.53834705992630000000, 4233.84605031512180000000, 4624.61527152879990000000, 4296.41015134933330000000, 4815.89731813339490000000, 4286.15374134372450000000, 4327.17938136615790000000, 4509.74347946598660000000, 4901.02552117994490000000, 4476.41014694775910000000, 4202.05117929773590000000, 4568.71783699823390000000, 4249.74348582381480000000, 479.00000000000000000000, 4.00000000000000000000, 4.00000000000000000000, 4.00000000000000000000, 4.00000000000000000000, 4.00000000000000000000, 4.00000000000000000000, 4.00000000000000000000, 4.00000000000000000000, 4.00000000000000000000, 4.00000000000000000000, 4.00000000000000000000, 4.00000000000000000000, 4.00000000000000000000, 4.00000000000000000000, 4.00000000000000000000, 4.00000000000000000000, 1605.00000000000000000000, 1695.00000000000000000000, 0.00000000000000000000
94.00000000000000000000, 0.00000000000000000000, 4064.10246472230390000000, 4678.97424455852430000000, 4233.84605031512180000000, 4625.64091252936030000000, 4296.41015134933330000000, 4816.41013863367610000000, 4291.28194634652850000000, 4326.66656086587770000000, 4507.17937696458470000000, 4893.84603417601830000000, 4469.74348044411360000000, 4198.97425629605370000000, 4558.46142699262600000000, 4236.92297331680490000000, 501.00000000000000000000, 4.00000000000000000000, 4.00000000000000000000, 4.00000000000000000000, 4.00000000000000000000, 4.00000000000000000000, 4.00000000000000000000, 4.00000000000000000000, 4.00000000000000000000, 4.00000000000000000000, 4.00000000000000000000, 4.00000000000000000000, 4.00000000000000000000, 4.00000000000000000000, 4.00000000000000000000, 4.00000000000000000000, 4.00000000000000000000, 1608.00000000000000000000, 1696.00000000000000000000, 0.00000000000000000000
95.00000000000000000000, 0.00000000000000000000, 4058.97425971950000000000, 4678.46142405824320000000, 4231.79476831400010000000, 4624.10245102851970000000, 4297.94861285017400000000, 4814.87167713283450000000, 4289.74348484568780000000, 4323.58963786419460000000, 4501.02553096121940000000, 4886.15372667181240000000, 4457.43578843738400000000, 4188.71784629044580000000, 4539.99988898253100000000, 4224.10246080979410000000, 497.00000000000000000000, 4.00000000000000000000, 4.00000000000000000000, 4.00000000000000000000, 4.00000000000000000000, 4.00000000000000000000, 4.00000000000000000000, 4.00000000000000000000, 4.00000000000000000000, 4.00000000000000000000, 4.00000000000000000000, 4.00000000000000000000, 4.00000000000000000000, 4.00000000000000000000, 4.00000000000000000000, 4.00000000000000000000, 4.00000000000000000000, 1613.00000000000000000000, 1696.00000000000000000000, 0.00000000000000000000
96.00000000000000000000, 0.00000000000000000000, 4063.58964422202370000000, 4684.61527006160850000000, 4231.79476831400010000000, 4625.12809202908010000000, 4297.94861285017400000000, 4814.35885663255430000000, 4287.17938234428580000000, 4317.94861236111050000000, 4502.05117196177980000000, 4888.20500867293410000000, 4456.41014743682260000000, 4184.10246178792200000000, 4538.46142748168950000000, 4225.12810181035550000000, 427.00000000000000000000, 4.00000000000000000000, 4.00000000000000000000, 4.00000000000000000000, 4.00000000000000000000, 4.00000000000000000000, 4.00000000000000000000, 4.00000000000000000000, 4.00000000000000000000, 4.00000000000000000000, 4.00000000000000000000, 4.00000000000000000000, 4.00000000000000000000, 4.00000000000000000000, 4.00000000000000000000, 4.00000000000000000000, 4.00000000000000000000, 1615.00000000000000000000, 1695.00000000000000000000, 0.00000000000000000000
97.00000000000000000000, 0.00000000000000000000, 4064.10246472230390000000, 4686.15373156245000000000, 4233.84605031512180000000, 4628.20501503076230000000, 4295.89733084905220000000, 4815.38449763311470000000, 4288.71784384512650000000, 4314.35886885914720000000, 4502.05117196177980000000, 4885.12808567125190000000, 4458.46142943794440000000, 4184.10246178792200000000, 4543.07681198421320000000, 4224.61528131007440000000, 479.00000000000000000000, 4.00000000000000000000, 4.00000000000000000000, 4.00000000000000000000, 4.00000000000000000000, 4.00000000000000000000, 4.00000000000000000000, 4.00000000000000000000, 4.00000000000000000000, 4.00000000000000000000, 4.00000000000000000000, 4.00000000000000000000, 4.00000000000000000000, 4.00000000000000000000, 4.00000000000000000000, 4.00000000000000000000, 4.00000000000000000000, 1618.00000000000000000000, 1696.00000000000000000000, 0.00000000000000000000
98.00000000000000000000, 0.00000000000000000000, 4062.56400322146280000000, 4692.30757756581440000000, 4233.33322981484160000000, 4633.33322003356720000000, 4299.48707435101550000000, 4816.92295913395630000000, 4288.71784384512650000000, 4312.30758685802630000000, 4494.35886445757390000000, 4877.43577816704510000000, 4454.35886543570180000000, 4183.58964128764090000000, 4538.46142748168950000000, 4222.56399930895260000000, 501.00000000000000000000, 4.00000000000000000000, 4.00000000000000000000, 4.00000000000000000000, 4.00000000000000000000, 4.00000000000000000000, 4.00000000000000000000, 4.00000000000000000000, 4.00000000000000000000, 4.00000000000000000000, 4.00000000000000000000, 4.00000000000000000000, 4.00000000000000000000, 4.00000000000000000000, 4.00000000000000000000, 4.00000000000000000000, 4.00000000000000000000, 1621.00000000000000000000, 1695.00000000000000000000, 0.00000000000000000000
99.00000000000000000000, 0.00000000000000000000, 4066.66656722370640000000, 4703.58962857198370000000, 4233.33322981484160000000, 4635.38450203468890000000, 4303.07681785297880000000, 4816.41013863367610000000, 4282.05117734148100000000, 4311.28194585746500000000, 4489.74347995505010000000, 4877.43577816704510000000, 4456.92296793710370000000, 4184.10246178792200000000, 4539.48706848225080000000, 4230.76912731343960000000, 497.00000000000000000000, 4.00000000000000000000, 4.00000000000000000000, 4.00000000000000000000, 4.00000000000000000000, 4.00000000000000000000, 4.00000000000000000000, 4.00000000000000000000, 4.00000000000000000000, 4.00000000000000000000, 4.00000000000000000000, 4.00000000000000000000, 4.00000000000000000000, 4.00000000000000000000, 4.00000000000000000000, 4.00000000000000000000, 4.00000000000000000000, 1624.00000000000000000000, 1696.00000000000000000000, 0.00000000000000000000
100.00000000000000000000, 0.00000000000000000000, 4065.64092622314550000000, 4699.99988507002130000000, 4233.33322981484160000000, 4631.79475853272560000000, 4298.46143335045510000000, 4814.87167713283450000000, 4279.48707484007900000000, 4314.35886885914720000000, 4496.41014645869560000000, 4878.97423966788660000000, 4461.02553193934640000000, 4186.15374378904290000000, 4539.48706848225080000000, 4230.76912731343960000000, 427.00000000000000000000, 4.00000000000000000000, 4.00000000000000000000, 4.00000000000000000000, 4.00000000000000000000, 4.00000000000000000000, 4.00000000000000000000, 4.00000000000000000000, 4.00000000000000000000, 4.00000000000000000000, 4.00000000000000000000, 4.00000000000000000000, 4.00000000000000000000, 4.00000000000000000000, 4.00000000000000000000, 4.00000000000000000000, 4.00000000000000000000, 1628.00000000000000000000, 1694.00000000000000000000, 0.00000000000000000000
101.00000000000000000000, 0.00000000000000000000, 4056.92297771837820000000, 4689.74347506441250000000, 4227.17938381147630000000, 4628.20501503076230000000, 4294.35886934821160000000, 4818.97424113507800000000, 4289.74348484568780000000, 4325.12809936503620000000, 4504.10245396290160000000, 4881.53834216928860000000, 4456.92296793710370000000, 4182.56400028708050000000, 4532.82040197860530000000, 4217.94861480642880000000, 479.00000000000000000000, 4.00000000000000000000, 4.00000000000000000000, 4.00000000000000000000, 4.00000000000000000000, 4.00000000000000000000, 4.00000000000000000000, 4.00000000000000000000, 4.00000000000000000000, 4.00000000000000000000, 4.00000000000000000000, 4.00000000000000000000, 4.00000000000000000000, 4.00000000000000000000, 4.00000000000000000000, 4.00000000000000000000, 4.00000000000000000000, 1631.00000000000000000000, 1695.00000000000000000000, 0.00000000000000000000
102.00000000000000000000, 0.00000000000000000000, 4057.43579821865890000000, 4693.84603906665600000000, 4218.97425580699020000000, 4628.20501503076230000000, 4295.89733084905220000000, 4827.69218963984530000000, 4296.92297184961350000000, 4334.35886837008370000000, 4513.84604346823020000000, 4896.41013667742120000000, 4463.58963444074930000000, 4182.05117978680030000000, 4546.66655548617650000000, 4221.02553780811190000000, 501.00000000000000000000, 4.00000000000000000000, 4.00000000000000000000, 4.00000000000000000000, 4.00000000000000000000, 4.00000000000000000000, 4.00000000000000000000, 4.00000000000000000000, 4.00000000000000000000, 4.00000000000000000000, 4.00000000000000000000, 4.00000000000000000000, 4.00000000000000000000, 4.00000000000000000000, 4.00000000000000000000, 4.00000000000000000000, 4.00000000000000000000, 1634.00000000000000000000, 1695.00000000000000000000, 0.00000000000000000000
103.00000000000000000000, 0.00000000000000000000, 4064.10246472230390000000, 4696.41014156805800000000, 4223.07681980923370000000, 4630.76911753216520000000, 4299.99989485129570000000, 4828.71783064040570000000, 4288.71784384512650000000, 4333.33322736952320000000, 4519.99988947159450000000, 4910.76911068527260000000, 4478.97424944916110000000, 4189.23066679072600000000, 4572.82040100047740000000, 4233.84605031512180000000, 497.00000000000000000000, 4.00000000000000000000, 4.00000000000000000000, 4.00000000000000000000, 4.00000000000000000000, 4.00000000000000000000, 4.00000000000000000000, 4.00000000000000000000, 4.00000000000000000000, 4.00000000000000000000, 4.00000000000000000000, 4.00000000000000000000, 4.00000000000000000000, 4.00000000000000000000, 4.00000000000000000000, 4.00000000000000000000, 4.00000000000000000000, 1636.00000000000000000000, 1696.00000000000000000000, 0.00000000000000000000
104.00000000000000000000, 0.00000000000000000000, 4063.58964422202370000000, 4693.33321856637580000000, 4230.25630681315940000000, 4631.79475853272560000000, 4302.05117685241750000000, 4818.46142063479780000000, 4279.99989534035920000000, 4327.69220186643820000000, 4514.35886396851040000000, 4912.30757218611320000000, 4482.05117245084420000000, 4190.76912829156750000000, 4578.46142650356250000000, 4235.89733231624360000000, 427.00000000000000000000, 4.00000000000000000000, 4.00000000000000000000, 4.00000000000000000000, 4.00000000000000000000, 4.00000000000000000000, 4.00000000000000000000, 4.00000000000000000000, 4.00000000000000000000, 4.00000000000000000000, 4.00000000000000000000, 4.00000000000000000000, 4.00000000000000000000, 4.00000000000000000000, 4.00000000000000000000, 4.00000000000000000000, 4.00000000000000000000, 1639.00000000000000000000, 1695.00000000000000000000, 0.00000000000000000000
105.00000000000000000000, 0.00000000000000000000, 4061.53836222090190000000, 4699.48706456974110000000, 4224.61528131007440000000, 4631.28193803244540000000, 4299.48707435101550000000, 4811.79475413115230000000, 4280.51271584064030000000, 4321.53835586307380000000, 4505.12809496346290000000, 4904.61526468190730000000, 4477.43578794832050000000, 4186.15374378904290000000, 4567.69219599767350000000, 4230.76912731343960000000, 479.00000000000000000000, 4.00000000000000000000, 4.00000000000000000000, 4.00000000000000000000, 4.00000000000000000000, 4.00000000000000000000, 4.00000000000000000000, 4.00000000000000000000, 4.00000000000000000000, 4.00000000000000000000, 4.00000000000000000000, 4.00000000000000000000, 4.00000000000000000000, 4.00000000000000000000, 4.00000000000000000000, 4.00000000000000000000, 4.00000000000000000000, 1641.00000000000000000000, 1696.00000000000000000000, 0.00000000000000000000
106.00000000000000000000, 0.00000000000000000000, 4059.99990072006090000000, 4702.56398757142320000000, 4216.92297380586840000000, 4631.79475853272560000000, 4296.41015134933330000000, 4817.94860013451670000000, 4281.53835684120080000000, 4314.35886885914720000000, 4496.92296695897580000000, 4893.33321367573810000000, 4473.33322394607690000000, 4183.07682078736070000000, 4557.43578599206560000000, 4222.05117880867240000000, 501.00000000000000000000, 4.00000000000000000000, 4.00000000000000000000, 4.00000000000000000000, 4.00000000000000000000, 4.00000000000000000000, 4.00000000000000000000, 4.00000000000000000000, 4.00000000000000000000, 4.00000000000000000000, 4.00000000000000000000, 4.00000000000000000000, 4.00000000000000000000, 4.00000000000000000000, 4.00000000000000000000, 4.00000000000000000000, 4.00000000000000000000, 1643.00000000000000000000, 1696.00000000000000000000, 0.00000000000000000000
107.00000000000000000000, 0.00000000000000000000, 4061.53836222090190000000, 4697.94860306889950000000, 4223.58964030951390000000, 4632.82039953328600000000, 4298.46143335045510000000, 4827.17936913956420000000, 4279.48707484007900000000, 4312.30758685802630000000, 4490.76912095561060000000, 4888.20500867293410000000, 4470.25630094439480000000, 4182.05117978680030000000, 4551.79476048898050000000, 4219.48707630727040000000, 497.00000000000000000000, 4.00000000000000000000, 4.00000000000000000000, 4.00000000000000000000, 4.00000000000000000000, 4.00000000000000000000, 4.00000000000000000000, 4.00000000000000000000, 4.00000000000000000000, 4.00000000000000000000, 4.00000000000000000000, 4.00000000000000000000, 4.00000000000000000000, 4.00000000000000000000, 4.00000000000000000000, 4.00000000000000000000, 4.00000000000000000000, 1644.00000000000000000000, 1696.00000000000000000000, 0.00000000000000000000
108.00000000000000000000, 0.00000000000000000000, 4070.76913122594940000000, 4701.02552607058170000000, 4232.82040931456140000000, 4634.35886103412760000000, 4299.48707435101550000000, 4828.71783064040570000000, 4279.99989534035920000000, 4313.84604835886690000000, 4490.25630045533030000000, 4891.28193167461630000000, 4473.33322394607690000000, 4184.61528228820230000000, 4554.35886299038250000000, 4230.25630681315940000000, 427.00000000000000000000, 4.00000000000000000000, 4.00000000000000000000, 4.00000000000000000000, 4.00000000000000000000, 4.00000000000000000000, 4.00000000000000000000, 4.00000000000000000000, 4.00000000000000000000, 4.00000000000000000000, 4.00000000000000000000, 4.00000000000000000000, 4.00000000000000000000, 4.00000000000000000000, 4.00000000000000000000, 4.00000000000000000000, 4.00000000000000000000, 1646.00000000000000000000, 1696.00000000000000000000, 0.00000000000000000000
109.00000000000000000000, 0.00000000000000000000, 4073.33323372735140000000, 4703.07680807170350000000, 4232.82040931456140000000, 4632.30757903300580000000, 4295.38451034877200000000, 4817.94860013451670000000, 4276.41015183839680000000, 4310.76912535718470000000, 4493.33322345701340000000, 4889.74347017377570000000, 4470.25630094439480000000, 4188.20502579016470000000, 4554.87168349066270000000, 4234.87169131568320000000, 479.00000000000000000000, 4.00000000000000000000, 4.00000000000000000000, 4.00000000000000000000, 4.00000000000000000000, 4.00000000000000000000, 4.00000000000000000000, 4.00000000000000000000, 4.00000000000000000000, 4.00000000000000000000, 4.00000000000000000000, 4.00000000000000000000, 4.00000000000000000000, 4.00000000000000000000, 4.00000000000000000000, 4.00000000000000000000, 4.00000000000000000000, 1648.00000000000000000000, 1694.00000000000000000000, 0.00000000000000000000
110.00000000000000000000, 0.00000000000000000000, 4069.23066972510830000000, 4700.51270557030150000000, 4231.79476831400010000000, 4630.76911753216520000000, 4295.38451034877200000000, 4811.79475413115230000000, 4268.20502383390980000000, 4309.23066385634320000000, 4491.28194145589170000000, 4884.10244467069060000000, 4462.05117293990770000000, 4187.69220528988440000000, 4549.74347848785870000000, 4227.69220431175750000000, 501.00000000000000000000, 4.00000000000000000000, 4.00000000000000000000, 4.00000000000000000000, 4.00000000000000000000, 4.00000000000000000000, 4.00000000000000000000, 4.00000000000000000000, 4.00000000000000000000, 4.00000000000000000000, 4.00000000000000000000, 4.00000000000000000000, 4.00000000000000000000, 4.00000000000000000000, 4.00000000000000000000, 4.00000000000000000000, 4.00000000000000000000, 1648.00000000000000000000, 1695.00000000000000000000, 0.00000000000000000000
111.00000000000000000000, 0.00000000000000000000, 4072.82041322707120000000, 4706.15373107338560000000, 4234.87169131568320000000, 4636.41014303524930000000, 4298.46143335045510000000, 4815.89731813339490000000, 4271.28194683559290000000, 4312.82040735830650000000, 4495.38450545813430000000, 4888.20500867293410000000, 4469.23065994383340000000, 4186.66656428932400000000, 4553.33322198982210000000, 4232.82040931456140000000, 497.00000000000000000000, 4.00000000000000000000, 4.00000000000000000000, 4.00000000000000000000, 4.00000000000000000000, 4.00000000000000000000, 4.00000000000000000000, 4.00000000000000000000, 4.00000000000000000000, 4.00000000000000000000, 4.00000000000000000000, 4.00000000000000000000, 4.00000000000000000000, 4.00000000000000000000, 4.00000000000000000000, 4.00000000000000000000, 4.00000000000000000000, 1651.00000000000000000000, 1693.00000000000000000000, 0.00000000000000000000
112.00000000000000000000, 0.00000000000000000000, 4077.43579772959490000000, 4711.79475657647070000000, 4235.89733231624360000000, 4636.92296353552960000000, 4296.92297184961350000000, 4818.97424113507800000000, 4279.99989534035920000000, 4313.33322785858670000000, 4497.43578745925610000000, 4884.10244467069060000000, 4472.30758294551560000000, 4188.71784629044580000000, 4549.23065798757850000000, 4233.33322981484160000000, 427.00000000000000000000, 4.00000000000000000000, 4.00000000000000000000, 4.00000000000000000000, 4.00000000000000000000, 4.00000000000000000000, 4.00000000000000000000, 4.00000000000000000000, 4.00000000000000000000, 4.00000000000000000000, 4.00000000000000000000, 4.00000000000000000000, 4.00000000000000000000, 4.00000000000000000000, 4.00000000000000000000, 4.00000000000000000000, 4.00000000000000000000, 1651.00000000000000000000, 1694.00000000000000000000, 0.00000000000000000000
113.00000000000000000000, 0.00000000000000000000, 4074.87169522819290000000, 4708.20501307450740000000, 4231.79476831400010000000, 4630.25629703188410000000, 4293.84604884793040000000, 4819.48706163535830000000, 4278.97425433979880000000, 4314.87168935942830000000, 4486.15373645308680000000, 4873.84603466508270000000, 4463.07681394046810000000, 4181.53835928651920000000, 4537.43578648112910000000, 4224.61528131007440000000, 479.00000000000000000000, 4.00000000000000000000, 4.00000000000000000000, 4.00000000000000000000, 4.00000000000000000000, 4.00000000000000000000, 4.00000000000000000000, 4.00000000000000000000, 4.00000000000000000000, 4.00000000000000000000, 4.00000000000000000000, 4.00000000000000000000, 4.00000000000000000000, 4.00000000000000000000, 4.00000000000000000000, 4.00000000000000000000, 4.00000000000000000000, 1653.00000000000000000000, 1693.00000000000000000000, 0.00000000000000000000
114.00000000000000000000, 0.00000000000000000000, 4073.33323372735140000000, 4707.69219257422720000000, 4227.69220431175750000000, 4630.76911753216520000000, 4296.41015134933330000000, 4825.12808713844240000000, 4278.46143383951860000000, 4321.02553536279270000000, 4490.25630045533030000000, 4881.53834216928860000000, 4467.69219844299190000000, 4172.82041078175280000000, 4544.10245298477460000000, 4223.07681980923370000000, 501.00000000000000000000, 4.00000000000000000000, 4.00000000000000000000, 4.00000000000000000000, 4.00000000000000000000, 4.00000000000000000000, 4.00000000000000000000, 4.00000000000000000000, 4.00000000000000000000, 4.00000000000000000000, 4.00000000000000000000, 4.00000000000000000000, 4.00000000000000000000, 4.00000000000000000000, 4.00000000000000000000, 4.00000000000000000000, 4.00000000000000000000, 1653.00000000000000000000, 1692.00000000000000000000, 0.00000000000000000000
115.00000000000000000000, 0.00000000000000000000, 4069.74349022538850000000, 4709.74347457534900000000, 4222.05117880867240000000, 4630.76911753216520000000, 4297.94861285017400000000, 4829.74347164096620000000, 4283.58963884232250000000, 4325.64091986531640000000, 4504.10245396290160000000, 4892.82039317545790000000, 4475.38450594719870000000, 4169.23066727978950000000, 4547.69219648673700000000, 4222.05117880867240000000, 497.00000000000000000000, 4.00000000000000000000, 4.00000000000000000000, 4.00000000000000000000, 4.00000000000000000000, 4.00000000000000000000, 4.00000000000000000000, 4.00000000000000000000, 4.00000000000000000000, 4.00000000000000000000, 4.00000000000000000000, 4.00000000000000000000, 4.00000000000000000000, 4.00000000000000000000, 4.00000000000000000000, 4.00000000000000000000, 4.00000000000000000000, 1653.00000000000000000000, 1693.00000000000000000000, 0.00000000000000000000
116.00000000000000000000, 0.00000000000000000000, 4061.02554172062170000000, 4706.15373107338560000000, 4216.92297380586840000000, 4623.07681002795830000000, 4294.87168984849180000000, 4828.71783064040570000000, 4284.61527984288300000000, 4326.66656086587770000000, 4499.48706946037780000000, 4887.69218817265390000000, 4471.79476244523540000000, 4168.20502627922910000000, 4537.43578648112910000000, 4214.87169180474670000000, 427.00000000000000000000, 4.00000000000000000000, 4.00000000000000000000, 4.00000000000000000000, 4.00000000000000000000, 4.00000000000000000000, 4.00000000000000000000, 4.00000000000000000000, 4.00000000000000000000, 4.00000000000000000000, 4.00000000000000000000, 4.00000000000000000000, 4.00000000000000000000, 4.00000000000000000000, 4.00000000000000000000, 4.00000000000000000000, 4.00000000000000000000, 1654.00000000000000000000, 1693.00000000000000000000, 0.00000000000000000000
117.00000000000000000000, 0.00000000000000000000, 4058.97425971950000000000, 4703.58962857198370000000, 4216.41015330558820000000, 4618.97424602571480000000, 4295.89733084905220000000, 4826.15372813900380000000, 4279.99989534035920000000, 4324.61527886475600000000, 4488.71783895448970000000, 4881.53834216928860000000, 4473.84604444635720000000, 4168.71784677950930000000, 4545.64091448561520000000, 4213.84605080418620000000, 479.00000000000000000000, 4.00000000000000000000, 4.00000000000000000000, 4.00000000000000000000, 4.00000000000000000000, 4.00000000000000000000, 4.00000000000000000000, 4.00000000000000000000, 4.00000000000000000000, 4.00000000000000000000, 4.00000000000000000000, 4.00000000000000000000, 4.00000000000000000000, 4.00000000000000000000, 4.00000000000000000000, 4.00000000000000000000, 4.00000000000000000000, 1656.00000000000000000000, 1693.00000000000000000000, 0.00000000000000000000
118.00000000000000000000, 0.00000000000000000000, 4059.99990072006090000000, 4703.07680807170350000000, 4216.41015330558820000000, 4619.99988702627620000000, 4297.94861285017400000000, 4818.46142063479780000000, 4272.82040833643350000000, 4317.94861236111050000000, 4491.79476195617190000000, 4882.56398316985000000000, 4471.79476244523540000000, 4170.76912878063100000000, 4556.92296549178450000000, 4216.41015330558820000000, 501.00000000000000000000, 4.00000000000000000000, 4.00000000000000000000, 4.00000000000000000000, 4.00000000000000000000, 4.00000000000000000000, 4.00000000000000000000, 4.00000000000000000000, 4.00000000000000000000, 4.00000000000000000000, 4.00000000000000000000, 4.00000000000000000000, 4.00000000000000000000, 4.00000000000000000000, 4.00000000000000000000, 4.00000000000000000000, 4.00000000000000000000, 1656.00000000000000000000, 1693.00000000000000000000, 0.00000000000000000000
119.00000000000000000000, 0.00000000000000000000, 4056.92297771837820000000, 4705.12809007282520000000, 4213.33323030390510000000, 4621.02552802683660000000, 4297.94861285017400000000, 4810.76911313059100000000, 4264.10245983166710000000, 4310.25630485690450000000, 4492.30758245645210000000, 4876.92295766676490000000, 4461.02553193934640000000, 4168.20502627922910000000, 4544.10245298477460000000, 4212.82040980362490000000, 497.00000000000000000000, 4.00000000000000000000, 4.00000000000000000000, 4.00000000000000000000, 4.00000000000000000000, 4.00000000000000000000, 4.00000000000000000000, 4.00000000000000000000, 4.00000000000000000000, 4.00000000000000000000, 4.00000000000000000000, 4.00000000000000000000, 4.00000000000000000000, 4.00000000000000000000, 4.00000000000000000000, 4.00000000000000000000, 4.00000000000000000000, 1658.00000000000000000000, 1694.00000000000000000000, 0.00000000000000000000
120.00000000000000000000, 0.00000000000000000000, 4061.02554172062170000000, 4713.33321807731230000000, 4217.43579430614860000000, 4627.69219453048210000000, 4303.58963835325900000000, 4812.30757463143250000000, 4264.10245983166710000000, 4310.76912535718470000000, 4488.20501845420860000000, 4876.92295766676490000000, 4464.10245494102950000000, 4165.64092377782710000000, 4542.56399148393300000000, 4216.92297380586840000000, 427.00000000000000000000, 4.00000000000000000000, 4.00000000000000000000, 4.00000000000000000000, 4.00000000000000000000, 4.00000000000000000000, 4.00000000000000000000, 4.00000000000000000000, 4.00000000000000000000, 4.00000000000000000000, 4.00000000000000000000, 4.00000000000000000000, 4.00000000000000000000, 4.00000000000000000000, 4.00000000000000000000, 4.00000000000000000000, 4.00000000000000000000, 1658.00000000000000000000, 1694.00000000000000000000, 0.00000000000000000000
121.00000000000000000000, 0.00000000000000000000, 4071.28195172623010000000, 4721.02552558151820000000, 4228.71784531231790000000, 4633.84604053384740000000, 4310.25630485690450000000, 4814.87167713283450000000, 4269.23066483447110000000, 4310.76912535718470000000, 4486.66655695336790000000, 4882.05116266956880000000, 4475.38450594719870000000, 4174.87169278287460000000, 4556.41014499150420000000, 4227.69220431175750000000, 479.00000000000000000000, 4.00000000000000000000, 4.00000000000000000000, 4.00000000000000000000, 4.00000000000000000000, 4.00000000000000000000, 4.00000000000000000000, 4.00000000000000000000, 4.00000000000000000000, 4.00000000000000000000, 4.00000000000000000000, 4.00000000000000000000, 4.00000000000000000000, 4.00000000000000000000, 4.00000000000000000000, 4.00000000000000000000, 4.00000000000000000000, 1659.00000000000000000000, 1693.00000000000000000000, 0.00000000000000000000
122.00000000000000000000, 0.00000000000000000000, 4078.46143873015580000000, 4723.07680758264000000000, 4234.35887081540300000000, 4636.41014303524930000000, 4308.20502285578280000000, 4814.87167713283450000000, 4265.64092133250780000000, 4308.20502285578280000000, 4488.20501845420860000000, 4880.51270116872820000000, 4475.89732644747890000000, 4185.12810278848250000000, 4557.43578599206560000000, 4234.35887081540300000000, 501.00000000000000000000, 4.00000000000000000000, 4.00000000000000000000, 4.00000000000000000000, 4.00000000000000000000, 4.00000000000000000000, 4.00000000000000000000, 4.00000000000000000000, 4.00000000000000000000, 4.00000000000000000000, 4.00000000000000000000, 4.00000000000000000000, 4.00000000000000000000, 4.00000000000000000000, 4.00000000000000000000, 4.00000000000000000000, 4.00000000000000000000, 1659.00000000000000000000, 1694.00000000000000000000, 0.00000000000000000000
123.00000000000000000000, 0.00000000000000000000, 4080.51272073127760000000, 4723.58962808292020000000, 4235.38451181596340000000, 4636.41014303524930000000, 4304.61527935381950000000, 4814.35885663255430000000, 4265.12810083222760000000, 4310.25630485690450000000, 4495.89732595841540000000, 4879.48706016816690000000, 4470.76912144467500000000, 4182.56400028708050000000, 4551.79476048898050000000, 4232.82040931456140000000, 497.00000000000000000000, 4.00000000000000000000, 4.00000000000000000000, 4.00000000000000000000, 4.00000000000000000000, 4.00000000000000000000, 4.00000000000000000000, 4.00000000000000000000, 4.00000000000000000000, 4.00000000000000000000, 4.00000000000000000000, 4.00000000000000000000, 4.00000000000000000000, 4.00000000000000000000, 4.00000000000000000000, 4.00000000000000000000, 4.00000000000000000000, 1659.00000000000000000000, 1694.00000000000000000000, 0.00000000000000000000
124.00000000000000000000, 0.00000000000000000000, 4082.05118223211870000000, 4721.53834608179840000000, 4231.79476831400010000000, 4632.82039953328600000000, 4303.07681785297880000000, 4811.79475413115230000000, 4271.79476733587310000000, 4308.20502285578280000000, 4487.69219795392840000000, 4873.84603466508270000000, 4459.48707043850570000000, 4170.25630828035080000000, 4541.53835048337260000000, 4220.51271730783080000000, 427.00000000000000000000, 4.00000000000000000000, 4.00000000000000000000, 4.00000000000000000000, 4.00000000000000000000, 4.00000000000000000000, 4.00000000000000000000, 4.00000000000000000000, 4.00000000000000000000, 4.00000000000000000000, 4.00000000000000000000, 4.00000000000000000000, 4.00000000000000000000, 4.00000000000000000000, 4.00000000000000000000, 4.00000000000000000000, 4.00000000000000000000, 1658.00000000000000000000, 1694.00000000000000000000, 0.00000000000000000000
125.00000000000000000000, 0.00000000000000000000, 4085.12810523380130000000, 4724.10244858320040000000, 4230.76912731343960000000, 4631.28193803244540000000, 4304.10245885353920000000, 4815.38449763311470000000, 4279.48707484007900000000, 4306.66656135494120000000, 4468.20501894327300000000, 4864.61526566003520000000, 4455.38450643626220000000, 4168.20502627922910000000, 4535.89732498028750000000, 4218.46143530671000000000, 479.00000000000000000000, 4.00000000000000000000, 4.00000000000000000000, 4.00000000000000000000, 4.00000000000000000000, 4.00000000000000000000, 4.00000000000000000000, 4.00000000000000000000, 4.00000000000000000000, 4.00000000000000000000, 4.00000000000000000000, 4.00000000000000000000, 4.00000000000000000000, 4.00000000000000000000, 4.00000000000000000000, 4.00000000000000000000, 4.00000000000000000000, 1659.00000000000000000000, 1694.00000000000000000000, 0.00000000000000000000
126.00000000000000000000, 0.00000000000000000000, 4091.79477173744680000000, 4735.38449958936960000000, 4238.46143481764560000000, 4635.89732253496910000000, 4310.25630485690450000000, 4827.17936913956420000000, 4284.61527984288300000000, 4319.99989436223220000000, 4478.46142894888090000000, 4872.30757316424110000000, 4470.76912144467500000000, 4184.10246178792200000000, 4549.23065798757850000000, 4231.28194781371990000000, 501.00000000000000000000, 4.00000000000000000000, 4.00000000000000000000, 4.00000000000000000000, 4.00000000000000000000, 4.00000000000000000000, 4.00000000000000000000, 4.00000000000000000000, 4.00000000000000000000, 4.00000000000000000000, 4.00000000000000000000, 4.00000000000000000000, 4.00000000000000000000, 4.00000000000000000000, 4.00000000000000000000, 4.00000000000000000000, 4.00000000000000000000, 1657.00000000000000000000, 1693.00000000000000000000, 0.00000000000000000000
127.00000000000000000000, 0.00000000000000000000, 4094.35887423884880000000, 4736.41014058993100000000, 4242.56399881988910000000, 4634.87168153440780000000, 4311.28194585746500000000, 4828.71783064040570000000, 4284.10245934260270000000, 4331.28194536840150000000, 4498.46142845981740000000, 4890.76911117433610000000, 4480.51271095000270000000, 4197.94861529549330000000, 4560.51270899374780000000, 4237.94861431736540000000, 497.00000000000000000000, 4.00000000000000000000, 4.00000000000000000000, 4.00000000000000000000, 4.00000000000000000000, 4.00000000000000000000, 4.00000000000000000000, 4.00000000000000000000, 4.00000000000000000000, 4.00000000000000000000, 4.00000000000000000000, 4.00000000000000000000, 4.00000000000000000000, 4.00000000000000000000, 4.00000000000000000000, 4.00000000000000000000, 4.00000000000000000000, 1658.00000000000000000000, 1694.00000000000000000000, 0.00000000000000000000
128.00000000000000000000, 0.00000000000000000000, 4092.30759223772700000000, 4727.69219208516370000000, 4241.02553731904750000000, 4630.76911753216520000000, 4303.07681785297880000000, 4816.41013863367610000000, 4279.48707484007900000000, 4326.66656086587770000000, 4495.38450545813430000000, 4891.28193167461630000000, 4475.89732644747890000000, 4200.51271779689520000000, 4555.89732449122400000000, 4239.48707581820690000000, 427.00000000000000000000, 4.00000000000000000000, 4.00000000000000000000, 4.00000000000000000000, 4.00000000000000000000, 4.00000000000000000000, 4.00000000000000000000, 4.00000000000000000000, 4.00000000000000000000, 4.00000000000000000000, 4.00000000000000000000, 4.00000000000000000000, 4.00000000000000000000, 4.00000000000000000000, 4.00000000000000000000, 4.00000000000000000000, 4.00000000000000000000, 1658.00000000000000000000, 1692.00000000000000000000, 0.00000000000000000000
0.00000000000000000000, 0.00000000000000000000, 4094.35887423884880000000, 4725.12808958376170000000, 4245.12810132129110000000, 4629.74347653160380000000, 4302.56399735269770000000, 4814.35885663255430000000, 4278.97425433979880000000, 4321.53835586307380000000, 4491.28194145589170000000, 4886.15372667181240000000, 4482.05117245084420000000, 4207.69220480082090000000, 4556.41014499150420000000, 4248.71784482325440000000, 492.00000000000000000000, 4.00000000000000000000, 4.00000000000000000000, 4.00000000000000000000, 4.00000000000000000000, 4.00000000000000000000, 4.00000000000000000000, 4.00000000000000000000, 4.00000000000000000000, 4.00000000000000000000, 4.00000000000000000000, 4.00000000000000000000, 4.00000000000000000000, 4.00000000000000000000, 4.00000000000000000000, 4.00000000000000000000, 4.00000000000000000000, 1657.00000000000000000000, 1694.00000000000000000000, 0.00000000000000000000
1.00000000000000000000, 0.00000000000000000000, 4099.99989974193340000000, 4724.10244858320040000000, 4249.74348582381480000000, 4629.23065603132360000000, 4309.74348435662340000000, 4821.02552313619980000000, 4281.02553634092060000000, 4326.15374036559750000000, 4494.87168495785410000000, 4890.25629067405590000000, 4487.17937745364820000000, 4219.48707630727040000000, 4558.97424749290620000000, 4252.30758832521680000000, 506.00000000000000000000, 4.00000000000000000000, 4.00000000000000000000, 4.00000000000000000000, 4.00000000000000000000, 4.00000000000000000000, 4.00000000000000000000, 4.00000000000000000000, 4.00000000000000000000, 4.00000000000000000000, 4.00000000000000000000, 4.00000000000000000000, 4.00000000000000000000, 4.00000000000000000000, 4.00000000000000000000, 4.00000000000000000000, 4.00000000000000000000, 1658.00000000000000000000, 1693.00000000000000000000, 0.00000000000000000000
2.00000000000000000000, 0.00000000000000000000, 4099.48707924165320000000, 4723.58962808292020000000, 4248.20502432297420000000, 4629.23065603132360000000, 4309.74348435662340000000, 4818.97424113507800000000, 4279.99989534035920000000, 4327.17938136615790000000, 4492.30758245645210000000, 4885.12808567125190000000, 4478.97424944916110000000, 4221.02553780811190000000, 4555.38450399094380000000, 4247.69220382269300000000, 528.00000000000000000000, 4.00000000000000000000, 4.00000000000000000000, 4.00000000000000000000, 4.00000000000000000000, 4.00000000000000000000, 4.00000000000000000000, 4.00000000000000000000, 4.00000000000000000000, 4.00000000000000000000, 4.00000000000000000000, 4.00000000000000000000, 4.00000000000000000000, 4.00000000000000000000, 4.00000000000000000000, 4.00000000000000000000, 4.00000000000000000000, 1657.00000000000000000000, 1694.00000000000000000000, 0.00000000000000000000
3.00000000000000000000, 0.00000000000000000000, 4093.84605373856810000000, 4725.12808958376170000000, 4245.64092182157130000000, 4630.25629703188410000000, 4304.61527935381950000000, 4812.82039513171280000000, 4278.46143383951860000000, 4318.97425336167090000000, 4493.84604395729370000000, 4877.43577816704510000000, 4473.84604444635720000000, 4217.94861480642880000000, 4552.82040148954180000000, 4247.69220382269300000000, 522.00000000000000000000, 4.00000000000000000000, 4.00000000000000000000, 4.00000000000000000000, 4.00000000000000000000, 4.00000000000000000000, 4.00000000000000000000, 4.00000000000000000000, 4.00000000000000000000, 4.00000000000000000000, 4.00000000000000000000, 4.00000000000000000000, 4.00000000000000000000, 4.00000000000000000000, 4.00000000000000000000, 4.00000000000000000000, 4.00000000000000000000, 1657.00000000000000000000, 1693.00000000000000000000, 0.00000000000000000000
4.00000000000000000000, 0.00000000000000000000, 4091.28195123716610000000, 4723.07680758264000000000, 4238.97425531792670000000, 4630.25629703188410000000, 4306.15374085466100000000, 4814.35885663255430000000, 4279.48707484007900000000, 4311.28194585746500000000, 4489.74347995505010000000, 4874.87167566564310000000, 4475.89732644747890000000, 4215.89733280530710000000, 4550.76911948842010000000, 4243.58963982045040000000, 512.00000000000000000000, 4.00000000000000000000, 4.00000000000000000000, 4.00000000000000000000, 4.00000000000000000000, 4.00000000000000000000, 4.00000000000000000000, 4.00000000000000000000, 4.00000000000000000000, 4.00000000000000000000, 4.00000000000000000000, 4.00000000000000000000, 4.00000000000000000000, 4.00000000000000000000, 4.00000000000000000000, 4.00000000000000000000, 4.00000000000000000000, 1657.00000000000000000000, 1692.00000000000000000000, 0.00000000000000000000
5.00000000000000000000, 0.00000000000000000000, 4089.74348973632500000000, 4725.64091008404190000000, 4230.76912731343960000000, 4629.23065603132360000000, 4310.25630485690450000000, 4822.05116413676020000000, 4280.51271584064030000000, 4311.28194585746500000000, 4476.41014694775910000000, 4869.23065016255900000000, 4473.33322394607690000000, 4213.84605080418620000000, 4549.23065798757850000000, 4241.02553731904750000000, 493.00000000000000000000, 4.00000000000000000000, 4.00000000000000000000, 4.00000000000000000000, 4.00000000000000000000, 4.00000000000000000000, 4.00000000000000000000, 4.00000000000000000000, 4.00000000000000000000, 4.00000000000000000000, 4.00000000000000000000, 4.00000000000000000000, 4.00000000000000000000, 4.00000000000000000000, 4.00000000000000000000, 4.00000000000000000000, 4.00000000000000000000, 1657.00000000000000000000, 1692.00000000000000000000, 0.00000000000000000000
6.00000000000000000000, 0.00000000000000000000, 4088.71784873576420000000, 4733.33321758824790000000, 4230.76912731343960000000, 4629.74347653160380000000, 4310.25630485690450000000, 4828.71783064040570000000, 4281.02553634092060000000, 4316.41015086026890000000, 4480.51271095000270000000, 4869.23065016255900000000, 4473.84604444635720000000, 4219.48707630727040000000, 4550.25629898813900000000, 4245.64092182157130000000, 520.00000000000000000000, 4.00000000000000000000, 4.00000000000000000000, 4.00000000000000000000, 4.00000000000000000000, 4.00000000000000000000, 4.00000000000000000000, 4.00000000000000000000, 4.00000000000000000000, 4.00000000000000000000, 4.00000000000000000000, 4.00000000000000000000, 4.00000000000000000000, 4.00000000000000000000, 4.00000000000000000000, 4.00000000000000000000, 4.00000000000000000000, 1655.00000000000000000000, 1692.00000000000000000000, 0.00000000000000000000
7.00000000000000000000, 0.00000000000000000000, 4089.23066923604440000000, 4734.87167908908940000000, 4232.30758881428120000000, 4630.25629703188410000000, 4310.76912535718470000000, 4829.74347164096620000000, 4278.97425433979880000000, 4322.05117636335400000000, 4498.46142845981740000000, 4885.12808567125190000000, 4485.12809545252640000000, 4230.76912731343960000000, 4556.41014499150420000000, 4248.20502432297420000000, 387.00000000000000000000, 4.00000000000000000000, 4.00000000000000000000, 4.00000000000000000000, 4.00000000000000000000, 4.00000000000000000000, 4.00000000000000000000, 4.00000000000000000000, 4.00000000000000000000, 4.00000000000000000000, 4.00000000000000000000, 4.00000000000000000000, 4.00000000000000000000, 4.00000000000000000000, 4.00000000000000000000, 4.00000000000000000000, 4.00000000000000000000, 1656.00000000000000000000, 1692.00000000000000000000, 0.00000000000000000000
8.00000000000000000000, 0.00000000000000000000, 4089.23066923604440000000, 4739.48706359161320000000, 4230.76912731343960000000, 4630.25629703188410000000, 4314.87168935942830000000, 4829.23065114068590000000, 4280.51271584064030000000, 4326.66656086587770000000, 4505.64091546374310000000, 4895.38449567685980000000, 4493.84604395729370000000, 4235.38451181596340000000, 4570.25629849907550000000, 4255.89733182718010000000, 524.00000000000000000000, 4.00000000000000000000, 4.00000000000000000000, 4.00000000000000000000, 4.00000000000000000000, 4.00000000000000000000, 4.00000000000000000000, 4.00000000000000000000, 4.00000000000000000000, 4.00000000000000000000, 4.00000000000000000000, 4.00000000000000000000, 4.00000000000000000000, 4.00000000000000000000, 4.00000000000000000000, 4.00000000000000000000, 4.00000000000000000000, 1655.00000000000000000000, 1691.00000000000000000000, 0.00000000000000000000
9.00000000000000000000, 0.00000000000000000000, 4091.79477173744680000000, 4749.74347359722200000000, 4231.79476831400010000000, 4635.38450203468890000000, 4320.51271486251240000000, 4832.30757414236900000000, 4286.15374134372450000000, 4330.76912486812130000000, 4506.15373596402330000000, 4893.84603417601830000000, 4495.38450545813430000000, 4234.87169131568320000000, 4579.99988800440310000000, 4263.07681883110580000000, 461.00000000000000000000, 4.00000000000000000000, 4.00000000000000000000, 4.00000000000000000000, 4.00000000000000000000, 4.00000000000000000000, 4.00000000000000000000, 4.00000000000000000000, 4.00000000000000000000, 4.00000000000000000000, 4.00000000000000000000, 4.00000000000000000000, 4.00000000000000000000, 4.00000000000000000000, 4.00000000000000000000, 4.00000000000000000000, 4.00000000000000000000, 1655.00000000000000000000, 1693.00000000000000000000, 0.00000000000000000000
10.00000000000000000000, 0.00000000000000000000, 4097.43579724053140000000, 4754.87167860002590000000, 4241.53835781932870000000, 4642.56398903861460000000, 4323.07681736391440000000, 4833.84603564320970000000, 4287.17938234428580000000, 4334.35886837008370000000, 4506.15373596402330000000, 4893.84603417601830000000, 4493.33322345701340000000, 4235.89733231624360000000, 4576.92296500272100000000, 4257.94861382830190000000, 501.00000000000000000000, 4.00000000000000000000, 4.00000000000000000000, 4.00000000000000000000, 4.00000000000000000000, 4.00000000000000000000, 4.00000000000000000000, 4.00000000000000000000, 4.00000000000000000000, 4.00000000000000000000, 4.00000000000000000000, 4.00000000000000000000, 4.00000000000000000000, 4.00000000000000000000, 4.00000000000000000000, 4.00000000000000000000, 4.00000000000000000000, 1655.00000000000000000000, 1691.00000000000000000000, 0.00000000000000000000
11.00000000000000000000, 0.00000000000000000000, 4096.92297674025120000000, 4750.25629409750220000000, 4248.20502432297420000000, 4642.05116853833440000000, 4319.99989436223220000000, 4828.20501014012550000000, 4282.05117734148100000000, 4325.64091986531640000000, 4497.94860795953720000000, 4888.71782917321430000000, 4487.17937745364820000000, 4229.74348631287920000000, 4567.69219599767350000000, 4249.23066532353460000000, 497.00000000000000000000, 4.00000000000000000000, 4.00000000000000000000, 4.00000000000000000000, 4.00000000000000000000, 4.00000000000000000000, 4.00000000000000000000, 4.00000000000000000000, 4.00000000000000000000, 4.00000000000000000000, 4.00000000000000000000, 4.00000000000000000000, 4.00000000000000000000, 4.00000000000000000000, 4.00000000000000000000, 4.00000000000000000000, 4.00000000000000000000, 1655.00000000000000000000, 1693.00000000000000000000, 0.00000000000000000000
12.00000000000000000000, 0.00000000000000000000, 4088.71784873576420000000, 4743.07680709357650000000, 4239.48707581820690000000, 4634.87168153440780000000, 4311.28194585746500000000, 4826.15372813900380000000, 4280.51271584064030000000, 4312.82040735830650000000, 4483.58963395168480000000, 4875.89731666620450000000, 4477.94860844860070000000, 4219.48707630727040000000, 4558.97424749290620000000, 4242.56399881988910000000, 427.00000000000000000000, 4.00000000000000000000, 4.00000000000000000000, 4.00000000000000000000, 4.00000000000000000000, 4.00000000000000000000, 4.00000000000000000000, 4.00000000000000000000, 4.00000000000000000000, 4.00000000000000000000, 4.00000000000000000000, 4.00000000000000000000, 4.00000000000000000000, 4.00000000000000000000, 4.00000000000000000000, 4.00000000000000000000, 4.00000000000000000000, 1656.00000000000000000000, 1692.00000000000000000000, 0.00000000000000000000
13.00000000000000000000, 0.00000000000000000000, 4083.07682323267950000000, 4735.89732008964980000000, 4231.79476831400010000000, 4626.66655352992170000000, 4302.05117685241750000000, 4825.12808713844240000000, 4282.56399784176210000000, 4310.76912535718470000000, 4476.41014694775910000000, 4864.10244515975410000000, 4471.79476244523540000000, 4213.84605080418620000000, 4545.12809398533500000000, 4234.35887081540300000000, 479.00000000000000000000, 4.00000000000000000000, 4.00000000000000000000, 4.00000000000000000000, 4.00000000000000000000, 4.00000000000000000000, 4.00000000000000000000, 4.00000000000000000000, 4.00000000000000000000, 4.00000000000000000000, 4.00000000000000000000, 4.00000000000000000000, 4.00000000000000000000, 4.00000000000000000000, 4.00000000000000000000, 4.00000000000000000000, 4.00000000000000000000, 1654.00000000000000000000, 1692.00000000000000000000, 0.00000000000000000000
