title:10links                                                                         , recorded:10.11.13 21.10.45, sampling:128, subject:anthony                                                                         , labels:COUNTER INTERPOLATED AF3 F7 F3 FC5 T7 P7 O1 O2 P8 T8 FC6 F4 F8 AF4 RAW_CQ CQ_AF3 CQ_F7 CQ_F3 CQ_FC5 CQ_T7 CQ_P7 CQ_O1 CQ_O2 CQ_P8 CQ_T8 CQ_FC6 CQ_F4 CQ_F8 CQ_AF4 CQ_CMS CQ_DRL GYROX GYROY MARKER, chan:36, units:emotiv
48.00000000000000000000, 0.00000000000000000000, 4067.69220822426720000000, 4711.79475657647070000000, 4224.61528131007440000000, 4611.28193852150890000000, 4297.43579234989370000000, 4797.43578012330000000000, 4273.84604933699480000000, 4290.76912584624820000000, 4454.87168593598200000000, 4864.10244515975410000000, 4467.17937794271170000000, 4173.33323128203300000000, 4534.35886347944600000000, 4310.25630485690450000000, 0.00000000000000000000, 4.00000000000000000000, 4.00000000000000000000, 4.00000000000000000000, 4.00000000000000000000, 4.00000000000000000000, 4.00000000000000000000, 4.00000000000000000000, 4.00000000000000000000, 4.00000000000000000000, 4.00000000000000000000, 4.00000000000000000000, 4.00000000000000000000, 4.00000000000000000000, 4.00000000000000000000, 4.00000000000000000000, 4.00000000000000000000, 1668.00000000000000000000, 1688.00000000000000000000, 0.00000000000000000000
49.00000000000000000000, 0.00000000000000000000, 4069.23066972510830000000, 4715.38450007843400000000, 4229.74348631287920000000, 4615.89732302403260000000, 4297.43579234989370000000, 4795.89731862245940000000, 4266.15374183278800000000, 4292.82040784737000000000, 4457.43578843738400000000, 4864.61526566003520000000, 4477.43578794832050000000, 4175.89733378343500000000, 4542.56399148393300000000, 4315.38450985970850000000, 0.00000000000000000000, 4.00000000000000000000, 4.00000000000000000000, 4.00000000000000000000, 4.00000000000000000000, 4.00000000000000000000, 4.00000000000000000000, 4.00000000000000000000, 4.00000000000000000000, 4.00000000000000000000, 4.00000000000000000000, 4.00000000000000000000, 4.00000000000000000000, 4.00000000000000000000, 4.00000000000000000000, 4.00000000000000000000, 4.00000000000000000000, 1668.00000000000000000000, 1689.00000000000000000000, 0.00000000000000000000
50.00000000000000000000, 0.00000000000000000000, 4063.07682372174350000000, 4715.89732057871420000000, 4219.99989680755060000000, 4610.25629752094850000000, 4297.43579234989370000000, 4792.30757512049600000000, 4262.05117783054540000000, 4286.66656184400470000000, 4453.33322443514040000000, 4859.99988115751150000000, 4467.69219844299190000000, 4168.20502627922910000000, 4534.87168397972710000000, 4310.25630485690450000000, 0.00000000000000000000, 4.00000000000000000000, 4.00000000000000000000, 4.00000000000000000000, 4.00000000000000000000, 4.00000000000000000000, 4.00000000000000000000, 4.00000000000000000000, 4.00000000000000000000, 4.00000000000000000000, 4.00000000000000000000, 4.00000000000000000000, 4.00000000000000000000, 4.00000000000000000000, 4.00000000000000000000, 4.00000000000000000000, 4.00000000000000000000, 1668.00000000000000000000, 1688.00000000000000000000, 0.00000000000000000000
51.00000000000000000000, 0.00000000000000000000, 4058.97425971950000000000, 4715.89732057871420000000, 4212.82040980362490000000, 4609.74347702066730000000, 4297.94861285017400000000, 4793.33321612105740000000, 4268.20502383390980000000, 4284.10245934260270000000, 4445.12809643065430000000, 4852.82039415358580000000, 4455.38450643626220000000, 4166.66656477838750000000, 4523.58963297355790000000, 4300.51271535157590000000, 0.00000000000000000000, 4.00000000000000000000, 4.00000000000000000000, 4.00000000000000000000, 4.00000000000000000000, 4.00000000000000000000, 4.00000000000000000000, 4.00000000000000000000, 4.00000000000000000000, 4.00000000000000000000, 4.00000000000000000000, 4.00000000000000000000, 4.00000000000000000000, 4.00000000000000000000, 4.00000000000000000000, 4.00000000000000000000, 4.00000000000000000000, 1668.00000000000000000000, 1688.00000000000000000000, 0.00000000000000000000
52.00000000000000000000, 0.00000000000000000000, 4060.51272122034110000000, 4712.30757707675090000000, 4216.41015330558820000000, 4615.38450252375240000000, 4297.43579234989370000000, 4794.87167762189800000000, 4273.84604933699480000000, 4292.82040784737000000000, 4446.15373743121470000000, 4846.15372764994030000000, 4456.92296793710370000000, 4164.61528277726570000000, 4522.56399197299650000000, 4296.92297184961350000000, 0.00000000000000000000, 4.00000000000000000000, 4.00000000000000000000, 4.00000000000000000000, 4.00000000000000000000, 4.00000000000000000000, 4.00000000000000000000, 4.00000000000000000000, 4.00000000000000000000, 4.00000000000000000000, 4.00000000000000000000, 4.00000000000000000000, 4.00000000000000000000, 4.00000000000000000000, 4.00000000000000000000, 4.00000000000000000000, 4.00000000000000000000, 1667.00000000000000000000, 1688.00000000000000000000, 0.00000000000000000000
53.00000000000000000000, 0.00000000000000000000, 4058.97425971950000000000, 4709.23065407506870000000, 4217.43579430614860000000, 4609.74347702066730000000, 4298.46143335045510000000, 4795.38449812217820000000, 4276.92297233867700000000, 4293.84604884793040000000, 4449.23066043289690000000, 4847.69218915078090000000, 4461.53835243962750000000, 4157.43579577334000000000, 4525.12809447439850000000, 4301.53835635213730000000, 0.00000000000000000000, 4.00000000000000000000, 4.00000000000000000000, 4.00000000000000000000, 4.00000000000000000000, 4.00000000000000000000, 4.00000000000000000000, 4.00000000000000000000, 4.00000000000000000000, 4.00000000000000000000, 4.00000000000000000000, 4.00000000000000000000, 4.00000000000000000000, 4.00000000000000000000, 4.00000000000000000000, 4.00000000000000000000, 4.00000000000000000000, 1668.00000000000000000000, 1686.00000000000000000000, 0.00000000000000000000
54.00000000000000000000, 0.00000000000000000000, 4054.87169571725640000000, 4711.28193607619050000000, 4212.82040980362490000000, 4603.58963101730300000000, 4298.46143335045510000000, 4795.89731862245940000000, 4279.99989534035920000000, 4288.20502334484630000000, 4449.23066043289690000000, 4854.35885565442640000000, 4457.94860893766420000000, 4161.53835977558360000000, 4522.56399197299650000000, 4306.66656135494120000000, 0.00000000000000000000, 4.00000000000000000000, 4.00000000000000000000, 4.00000000000000000000, 4.00000000000000000000, 4.00000000000000000000, 4.00000000000000000000, 4.00000000000000000000, 4.00000000000000000000, 4.00000000000000000000, 4.00000000000000000000, 4.00000000000000000000, 4.00000000000000000000, 4.00000000000000000000, 4.00000000000000000000, 4.00000000000000000000, 4.00000000000000000000, 1667.00000000000000000000, 1686.00000000000000000000, 0.00000000000000000000
55.00000000000000000000, 0.00000000000000000000, 4059.99990072006090000000, 4715.38450007843400000000, 4217.43579430614860000000, 4611.28193852150890000000, 4295.89733084905220000000, 4795.89731862245940000000, 4281.02553634092060000000, 4291.79476684680960000000, 4454.35886543570180000000, 4860.51270165779170000000, 4457.94860893766420000000, 4170.25630828035080000000, 4528.71783797636180000000, 4309.23066385634320000000, 0.00000000000000000000, 4.00000000000000000000, 4.00000000000000000000, 4.00000000000000000000, 4.00000000000000000000, 4.00000000000000000000, 4.00000000000000000000, 4.00000000000000000000, 4.00000000000000000000, 4.00000000000000000000, 4.00000000000000000000, 4.00000000000000000000, 4.00000000000000000000, 4.00000000000000000000, 4.00000000000000000000, 4.00000000000000000000, 4.00000000000000000000, 1667.00000000000000000000, 1685.00000000000000000000, 0.00000000000000000000
56.00000000000000000000, 0.00000000000000000000, 4071.28195172623010000000, 4719.48706408067660000000, 4229.23066581259810000000, 4617.94860502515440000000, 4298.97425385073530000000, 4797.43578012330000000000, 4280.51271584064030000000, 4296.92297184961350000000, 4461.53835243962750000000, 4862.56398365891350000000, 4466.66655744243140000000, 4171.79476978119150000000, 4538.97424798197060000000, 4314.35886885914720000000, 0.00000000000000000000, 4.00000000000000000000, 4.00000000000000000000, 4.00000000000000000000, 4.00000000000000000000, 4.00000000000000000000, 4.00000000000000000000, 4.00000000000000000000, 4.00000000000000000000, 4.00000000000000000000, 4.00000000000000000000, 4.00000000000000000000, 4.00000000000000000000, 4.00000000000000000000, 4.00000000000000000000, 4.00000000000000000000, 4.00000000000000000000, 1667.00000000000000000000, 1686.00000000000000000000, 0.00000000000000000000
57.00000000000000000000, 0.00000000000000000000, 4076.92297722931470000000, 4723.58962808292020000000, 4235.38451181596340000000, 4618.97424602571480000000, 4305.12809985409970000000, 4798.97424162414150000000, 4281.02553634092060000000, 4295.38451034877200000000, 4461.02553193934640000000, 4863.58962465947390000000, 4474.35886494663740000000, 4177.43579528427650000000, 4535.38450448000730000000, 4318.97425336167090000000, 0.00000000000000000000, 4.00000000000000000000, 4.00000000000000000000, 4.00000000000000000000, 4.00000000000000000000, 4.00000000000000000000, 4.00000000000000000000, 4.00000000000000000000, 4.00000000000000000000, 4.00000000000000000000, 4.00000000000000000000, 4.00000000000000000000, 4.00000000000000000000, 4.00000000000000000000, 4.00000000000000000000, 4.00000000000000000000, 4.00000000000000000000, 1667.00000000000000000000, 1686.00000000000000000000, 0.00000000000000000000
58.00000000000000000000, 0.00000000000000000000, 4081.02554123155780000000, 4726.15373058432210000000, 4233.84605031512180000000, 4623.58963052823860000000, 4305.12809985409970000000, 4798.46142112386130000000, 4282.05117734148100000000, 4293.84604884793040000000, 4458.46142943794440000000, 4869.74347066283920000000, 4474.87168544691850000000, 4186.66656428932400000000, 4538.46142748168950000000, 4323.07681736391440000000, 0.00000000000000000000, 4.00000000000000000000, 4.00000000000000000000, 4.00000000000000000000, 4.00000000000000000000, 4.00000000000000000000, 4.00000000000000000000, 4.00000000000000000000, 4.00000000000000000000, 4.00000000000000000000, 4.00000000000000000000, 4.00000000000000000000, 4.00000000000000000000, 4.00000000000000000000, 4.00000000000000000000, 4.00000000000000000000, 4.00000000000000000000, 1667.00000000000000000000, 1687.00000000000000000000, 0.00000000000000000000
59.00000000000000000000, 0.00000000000000000000, 4082.56400273239930000000, 4720.51270508123800000000, 4233.33322981484160000000, 4624.61527152879990000000, 4301.53835635213730000000, 4796.92295962301980000000, 4279.99989534035920000000, 4292.30758734708980000000, 4459.99989093878590000000, 4872.30757316424110000000, 4475.89732644747890000000, 4186.15374378904290000000, 4554.35886299038250000000, 4328.71784286699950000000, 0.00000000000000000000, 4.00000000000000000000, 4.00000000000000000000, 4.00000000000000000000, 4.00000000000000000000, 4.00000000000000000000, 4.00000000000000000000, 4.00000000000000000000, 4.00000000000000000000, 4.00000000000000000000, 4.00000000000000000000, 4.00000000000000000000, 4.00000000000000000000, 4.00000000000000000000, 4.00000000000000000000, 4.00000000000000000000, 4.00000000000000000000, 1667.00000000000000000000, 1688.00000000000000000000, 0.00000000000000000000
60.00000000000000000000, 0.00000000000000000000, 4079.48707973071670000000, 4711.79475657647070000000, 4234.87169131568320000000, 4617.94860502515440000000, 4303.07681785297880000000, 4798.46142112386130000000, 4279.99989534035920000000, 4290.76912584624820000000, 4459.99989093878590000000, 4870.25629116311940000000, 4477.43578794832050000000, 4183.58964128764090000000, 4557.94860649234580000000, 4328.20502236671840000000, 0.00000000000000000000, 4.00000000000000000000, 4.00000000000000000000, 4.00000000000000000000, 4.00000000000000000000, 4.00000000000000000000, 4.00000000000000000000, 4.00000000000000000000, 4.00000000000000000000, 4.00000000000000000000, 4.00000000000000000000, 4.00000000000000000000, 4.00000000000000000000, 4.00000000000000000000, 4.00000000000000000000, 4.00000000000000000000, 4.00000000000000000000, 1665.00000000000000000000, 1689.00000000000000000000, 0.00000000000000000000
61.00000000000000000000, 0.00000000000000000000, 4077.43579772959490000000, 4710.25629507562920000000, 4234.35887081540300000000, 4615.89732302403260000000, 4304.61527935381950000000, 4800.51270312498310000000, 4285.64092084344430000000, 4293.33322834765020000000, 4461.02553193934640000000, 4872.30757316424110000000, 4474.87168544691850000000, 4178.97425678511720000000, 4549.23065798757850000000, 4318.97425336167090000000, 0.00000000000000000000, 4.00000000000000000000, 4.00000000000000000000, 4.00000000000000000000, 4.00000000000000000000, 4.00000000000000000000, 4.00000000000000000000, 4.00000000000000000000, 4.00000000000000000000, 4.00000000000000000000, 4.00000000000000000000, 4.00000000000000000000, 4.00000000000000000000, 4.00000000000000000000, 4.00000000000000000000, 4.00000000000000000000, 4.00000000000000000000, 1666.00000000000000000000, 1690.00000000000000000000, 0.00000000000000000000
62.00000000000000000000, 0.00000000000000000000, 4077.43579772959490000000, 4709.74347457534900000000, 4232.30758881428120000000, 4616.92296402459400000000, 4300.51271535157590000000, 4799.99988262470200000000, 4289.23066434540670000000, 4294.87168984849180000000, 4462.56399344018790000000, 4874.87167566564310000000, 4471.79476244523540000000, 4171.79476978119150000000, 4545.12809398533500000000, 4310.76912535718470000000, 0.00000000000000000000, 4.00000000000000000000, 4.00000000000000000000, 4.00000000000000000000, 4.00000000000000000000, 4.00000000000000000000, 4.00000000000000000000, 4.00000000000000000000, 4.00000000000000000000, 4.00000000000000000000, 4.00000000000000000000, 4.00000000000000000000, 4.00000000000000000000, 4.00000000000000000000, 4.00000000000000000000, 4.00000000000000000000, 4.00000000000000000000, 1666.00000000000000000000, 1689.00000000000000000000, 0.00000000000000000000
63.00000000000000000000, 0.00000000000000000000, 4073.33323372735140000000, 4705.12809007282520000000, 4225.64092231063570000000, 4614.35886152319110000000, 4296.92297184961350000000, 4798.46142112386130000000, 4283.07681834204230000000, 4294.87168984849180000000, 4461.53835243962750000000, 4875.89731666620450000000, 4472.30758294551560000000, 4171.79476978119150000000, 4545.12809398533500000000, 4309.74348435662340000000, 0.00000000000000000000, 4.00000000000000000000, 4.00000000000000000000, 4.00000000000000000000, 4.00000000000000000000, 4.00000000000000000000, 4.00000000000000000000, 4.00000000000000000000, 4.00000000000000000000, 4.00000000000000000000, 4.00000000000000000000, 4.00000000000000000000, 4.00000000000000000000, 4.00000000000000000000, 4.00000000000000000000, 4.00000000000000000000, 4.00000000000000000000, 1664.00000000000000000000, 1691.00000000000000000000, 0.00000000000000000000
64.00000000000000000000, 0.00000000000000000000, 4066.66656722370640000000, 4702.05116707114300000000, 4219.99989680755060000000, 4611.28193852150890000000, 4296.41015134933330000000, 4797.43578012330000000000, 4276.92297233867700000000, 4296.41015134933330000000, 4462.56399344018790000000, 4875.89731666620450000000, 4473.84604444635720000000, 4172.30759028147170000000, 4544.10245298477460000000, 4311.28194585746500000000, 491.00000000000000000000, 4.00000000000000000000, 4.00000000000000000000, 4.00000000000000000000, 4.00000000000000000000, 4.00000000000000000000, 4.00000000000000000000, 4.00000000000000000000, 4.00000000000000000000, 4.00000000000000000000, 4.00000000000000000000, 4.00000000000000000000, 4.00000000000000000000, 4.00000000000000000000, 4.00000000000000000000, 4.00000000000000000000, 4.00000000000000000000, 1665.00000000000000000000, 1689.00000000000000000000, 0.00000000000000000000
65.00000000000000000000, 0.00000000000000000000, 4062.05118272118260000000, 4704.61526957254500000000, 4217.94861480642880000000, 4609.23065652038710000000, 4296.92297184961350000000, 4795.89731862245940000000, 4277.94861333923840000000, 4288.71784384512650000000, 4456.41014743682260000000, 4867.17936816143720000000, 4469.23065994383340000000, 4169.74348778006970000000, 4540.51270948281130000000, 4307.69220235550260000000, 507.00000000000000000000, 4.00000000000000000000, 4.00000000000000000000, 4.00000000000000000000, 4.00000000000000000000, 4.00000000000000000000, 4.00000000000000000000, 4.00000000000000000000, 4.00000000000000000000, 4.00000000000000000000, 4.00000000000000000000, 4.00000000000000000000, 4.00000000000000000000, 4.00000000000000000000, 4.00000000000000000000, 4.00000000000000000000, 4.00000000000000000000, 1665.00000000000000000000, 1690.00000000000000000000, 0.00000000000000000000
66.00000000000000000000, 0.00000000000000000000, 4057.43579821865890000000, 4704.10244907226480000000, 4214.87169180474670000000, 4604.61527201786340000000, 4297.43579234989370000000, 4795.38449812217820000000, 4279.48707484007900000000, 4279.99989534035920000000, 4442.56399392925140000000, 4854.35885565442640000000, 4459.99989093878590000000, 4165.12810327754600000000, 4535.89732498028750000000, 4299.99989485129570000000, 529.00000000000000000000, 4.00000000000000000000, 4.00000000000000000000, 4.00000000000000000000, 4.00000000000000000000, 4.00000000000000000000, 4.00000000000000000000, 4.00000000000000000000, 4.00000000000000000000, 4.00000000000000000000, 4.00000000000000000000, 4.00000000000000000000, 4.00000000000000000000, 4.00000000000000000000, 4.00000000000000000000, 4.00000000000000000000, 4.00000000000000000000, 1666.00000000000000000000, 1688.00000000000000000000, 0.00000000000000000000
67.00000000000000000000, 0.00000000000000000000, 4055.89733671781730000000, 4698.97424406945990000000, 4212.82040980362490000000, 4602.05116951646140000000, 4294.87168984849180000000, 4797.43578012330000000000, 4276.92297233867700000000, 4287.17938234428580000000, 4443.58963492981270000000, 4855.38449665498770000000, 4457.94860893766420000000, 4157.43579577334000000000, 4537.94860698140930000000, 4293.84604884793040000000, 523.00000000000000000000, 4.00000000000000000000, 4.00000000000000000000, 4.00000000000000000000, 4.00000000000000000000, 4.00000000000000000000, 4.00000000000000000000, 4.00000000000000000000, 4.00000000000000000000, 4.00000000000000000000, 4.00000000000000000000, 4.00000000000000000000, 4.00000000000000000000, 4.00000000000000000000, 4.00000000000000000000, 4.00000000000000000000, 4.00000000000000000000, 1666.00000000000000000000, 1687.00000000000000000000, 0.00000000000000000000
68.00000000000000000000, 0.00000000000000000000, 4057.43579821865890000000, 4697.43578256861930000000, 4213.33323030390510000000, 4602.56399001674160000000, 4295.38451034877200000000, 4797.43578012330000000000, 4278.46143383951860000000, 4296.92297184961350000000, 4455.89732693654240000000, 4861.53834265835210000000, 4458.97424993822550000000, 4152.82041127081630000000, 4538.97424798197060000000, 4293.33322834765020000000, 513.00000000000000000000, 4.00000000000000000000, 4.00000000000000000000, 4.00000000000000000000, 4.00000000000000000000, 4.00000000000000000000, 4.00000000000000000000, 4.00000000000000000000, 4.00000000000000000000, 4.00000000000000000000, 4.00000000000000000000, 4.00000000000000000000, 4.00000000000000000000, 4.00000000000000000000, 4.00000000000000000000, 4.00000000000000000000, 4.00000000000000000000, 1665.00000000000000000000, 1686.00000000000000000000, 0.00000000000000000000
69.00000000000000000000, 0.00000000000000000000, 4055.38451621753710000000, 4699.48706456974110000000, 4212.82040980362490000000, 4602.05116951646140000000, 4296.92297184961350000000, 4798.46142112386130000000, 4287.69220284456610000000, 4297.94861285017400000000, 4461.53835243962750000000, 4863.58962465947390000000, 4461.02553193934640000000, 4156.41015477277960000000, 4536.41014548056770000000, 4295.89733084905220000000, 494.00000000000000000000, 4.00000000000000000000, 4.00000000000000000000, 4.00000000000000000000, 4.00000000000000000000, 4.00000000000000000000, 4.00000000000000000000, 4.00000000000000000000, 4.00000000000000000000, 4.00000000000000000000, 4.00000000000000000000, 4.00000000000000000000, 4.00000000000000000000, 4.00000000000000000000, 4.00000000000000000000, 4.00000000000000000000, 4.00000000000000000000, 1666.00000000000000000000, 1685.00000000000000000000, 0.00000000000000000000
70.00000000000000000000, 0.00000000000000000000, 4058.97425971950000000000, 4705.12809007282520000000, 4215.38451230502690000000, 4606.66655401898520000000, 4297.43579234989370000000, 4803.58962612666530000000, 4297.43579234989370000000, 4305.12809985409970000000, 4470.25630094439480000000, 4876.92295766676490000000, 4470.76912144467500000000, 4167.17938527866770000000, 4542.56399148393300000000, 4304.10245885353920000000, 514.00000000000000000000, 4.00000000000000000000, 4.00000000000000000000, 4.00000000000000000000, 4.00000000000000000000, 4.00000000000000000000, 4.00000000000000000000, 4.00000000000000000000, 4.00000000000000000000, 4.00000000000000000000, 4.00000000000000000000, 4.00000000000000000000, 4.00000000000000000000, 4.00000000000000000000, 4.00000000000000000000, 4.00000000000000000000, 4.00000000000000000000, 1666.00000000000000000000, 1685.00000000000000000000, 0.00000000000000000000
71.00000000000000000000, 0.00000000000000000000, 4072.82041322707120000000, 4714.87167957815290000000, 4226.66656331119610000000, 4617.43578452487420000000, 4299.99989485129570000000, 4804.61526712722570000000, 4295.89733084905220000000, 4313.33322785858670000000, 4484.10245445196600000000, 4894.87167517657960000000, 4479.48706994944220000000, 4179.99989778567850000000, 4557.43578599206560000000, 4315.89733035998870000000, 379.00000000000000000000, 4.00000000000000000000, 4.00000000000000000000, 4.00000000000000000000, 4.00000000000000000000, 4.00000000000000000000, 4.00000000000000000000, 4.00000000000000000000, 4.00000000000000000000, 4.00000000000000000000, 4.00000000000000000000, 4.00000000000000000000, 4.00000000000000000000, 4.00000000000000000000, 4.00000000000000000000, 4.00000000000000000000, 4.00000000000000000000, 1665.00000000000000000000, 1684.00000000000000000000, 0.00000000000000000000
72.00000000000000000000, 0.00000000000000000000, 4073.33323372735140000000, 4718.46142308011620000000, 4232.30758881428120000000, 4619.99988702627620000000, 4301.02553585185710000000, 4797.94860062358110000000, 4285.12810034316410000000, 4306.15374085466100000000, 4476.92296744803930000000, 4889.74347017377570000000, 4476.92296744803930000000, 4179.48707728539830000000, 4558.97424749290620000000, 4316.92297136055000000000, 524.00000000000000000000, 4.00000000000000000000, 4.00000000000000000000, 4.00000000000000000000, 4.00000000000000000000, 4.00000000000000000000, 4.00000000000000000000, 4.00000000000000000000, 4.00000000000000000000, 4.00000000000000000000, 4.00000000000000000000, 4.00000000000000000000, 4.00000000000000000000, 4.00000000000000000000, 4.00000000000000000000, 4.00000000000000000000, 4.00000000000000000000, 1665.00000000000000000000, 1686.00000000000000000000, 0.00000000000000000000
73.00000000000000000000, 0.00000000000000000000, 4059.99990072006090000000, 4714.35885907787270000000, 4227.17938381147630000000, 4613.84604102291090000000, 4296.41015134933330000000, 4794.35885712161780000000, 4279.99989534035920000000, 4294.87168984849180000000, 4461.02553193934640000000, 4873.33321416480160000000, 4474.35886494663740000000, 4167.69220577894790000000, 4542.05117098365280000000, 4308.71784335606300000000, 458.00000000000000000000, 4.00000000000000000000, 4.00000000000000000000, 4.00000000000000000000, 4.00000000000000000000, 4.00000000000000000000, 4.00000000000000000000, 4.00000000000000000000, 4.00000000000000000000, 4.00000000000000000000, 4.00000000000000000000, 4.00000000000000000000, 4.00000000000000000000, 4.00000000000000000000, 4.00000000000000000000, 4.00000000000000000000, 4.00000000000000000000, 1665.00000000000000000000, 1686.00000000000000000000, 0.00000000000000000000
74.00000000000000000000, 0.00000000000000000000, 4062.05118272118260000000, 4716.41014107899450000000, 4225.64092231063570000000, 4617.94860502515440000000, 4296.92297184961350000000, 4795.38449812217820000000, 4282.56399784176210000000, 4290.25630534596800000000, 4462.05117293990770000000, 4873.84603466508270000000, 4476.41014694775910000000, 4168.20502627922910000000, 4538.46142748168950000000, 4308.71784335606300000000, 499.00000000000000000000, 4.00000000000000000000, 4.00000000000000000000, 4.00000000000000000000, 4.00000000000000000000, 4.00000000000000000000, 4.00000000000000000000, 4.00000000000000000000, 4.00000000000000000000, 4.00000000000000000000, 4.00000000000000000000, 4.00000000000000000000, 4.00000000000000000000, 4.00000000000000000000, 4.00000000000000000000, 4.00000000000000000000, 4.00000000000000000000, 1664.00000000000000000000, 1688.00000000000000000000, 0.00000000000000000000
75.00000000000000000000, 0.00000000000000000000, 4076.92297722931470000000, 4721.02552558151820000000, 4227.69220431175750000000, 4626.66655352992170000000, 4303.58963835325900000000, 4796.92295962301980000000, 4282.56399784176210000000, 4293.33322834765020000000, 4466.15373694215120000000, 4877.94859866732530000000, 4475.89732644747890000000, 4174.35887228259340000000, 4551.28193998870030000000, 4314.35886885914720000000, 499.00000000000000000000, 4.00000000000000000000, 4.00000000000000000000, 4.00000000000000000000, 4.00000000000000000000, 4.00000000000000000000, 4.00000000000000000000, 4.00000000000000000000, 4.00000000000000000000, 4.00000000000000000000, 4.00000000000000000000, 4.00000000000000000000, 4.00000000000000000000, 4.00000000000000000000, 4.00000000000000000000, 4.00000000000000000000, 4.00000000000000000000, 1665.00000000000000000000, 1686.00000000000000000000, 0.00000000000000000000
76.00000000000000000000, 0.00000000000000000000, 4080.51272073127760000000, 4719.99988458095780000000, 4228.20502481203770000000, 4626.66655352992170000000, 4304.61527935381950000000, 4797.43578012330000000000, 4279.48707484007900000000, 4292.82040784737000000000, 4458.46142943794440000000, 4867.69218866171740000000, 4474.87168544691850000000, 4169.74348778006970000000, 4553.33322198982210000000, 4319.48707386195200000000, 432.00000000000000000000, 4.00000000000000000000, 4.00000000000000000000, 4.00000000000000000000, 4.00000000000000000000, 4.00000000000000000000, 4.00000000000000000000, 4.00000000000000000000, 4.00000000000000000000, 4.00000000000000000000, 4.00000000000000000000, 4.00000000000000000000, 4.00000000000000000000, 4.00000000000000000000, 4.00000000000000000000, 4.00000000000000000000, 4.00000000000000000000, 1663.00000000000000000000, 1687.00000000000000000000, 0.00000000000000000000
77.00000000000000000000, 0.00000000000000000000, 4077.43579772959490000000, 4724.10244858320040000000, 4228.71784531231790000000, 4624.61527152879990000000, 4306.15374085466100000000, 4796.41013912273960000000, 4278.46143383951860000000, 4283.07681834204230000000, 4449.23066043289690000000, 4858.46141965666990000000, 4475.38450594719870000000, 4171.79476978119150000000, 4547.17937598645680000000, 4323.58963786419460000000, 474.00000000000000000000, 4.00000000000000000000, 4.00000000000000000000, 4.00000000000000000000, 4.00000000000000000000, 4.00000000000000000000, 4.00000000000000000000, 4.00000000000000000000, 4.00000000000000000000, 4.00000000000000000000, 4.00000000000000000000, 4.00000000000000000000, 4.00000000000000000000, 4.00000000000000000000, 4.00000000000000000000, 4.00000000000000000000, 4.00000000000000000000, 1664.00000000000000000000, 1686.00000000000000000000, 0.00000000000000000000
78.00000000000000000000, 0.00000000000000000000, 4077.94861822987510000000, 4726.66655108460240000000, 4227.69220431175750000000, 4625.12809202908010000000, 4306.66656135494120000000, 4794.35885712161780000000, 4278.97425433979880000000, 4281.53835684120080000000, 4450.25630143345820000000, 4860.51270165779170000000, 4475.38450594719870000000, 4182.05117978680030000000, 4548.71783748729830000000, 4320.51271486251240000000, 499.00000000000000000000, 4.00000000000000000000, 4.00000000000000000000, 4.00000000000000000000, 4.00000000000000000000, 4.00000000000000000000, 4.00000000000000000000, 4.00000000000000000000, 4.00000000000000000000, 4.00000000000000000000, 4.00000000000000000000, 4.00000000000000000000, 4.00000000000000000000, 4.00000000000000000000, 4.00000000000000000000, 4.00000000000000000000, 4.00000000000000000000, 1663.00000000000000000000, 1685.00000000000000000000, 0.00000000000000000000
79.00000000000000000000, 0.00000000000000000000, 4075.89733622875380000000, 4721.53834608179840000000, 4227.17938381147630000000, 4623.58963052823860000000, 4302.56399735269770000000, 4795.38449812217820000000, 4278.46143383951860000000, 4292.30758734708980000000, 4457.94860893766420000000, 4866.66654766115700000000, 4475.38450594719870000000, 4177.94861578455680000000, 4550.76911948842010000000, 4311.79476635774520000000, 499.00000000000000000000, 4.00000000000000000000, 4.00000000000000000000, 4.00000000000000000000, 4.00000000000000000000, 4.00000000000000000000, 4.00000000000000000000, 4.00000000000000000000, 4.00000000000000000000, 4.00000000000000000000, 4.00000000000000000000, 4.00000000000000000000, 4.00000000000000000000, 4.00000000000000000000, 4.00000000000000000000, 4.00000000000000000000, 4.00000000000000000000, 1663.00000000000000000000, 1685.00000000000000000000, 0.00000000000000000000
80.00000000000000000000, 0.00000000000000000000, 4073.33323372735140000000, 4721.02552558151820000000, 4226.66656331119610000000, 4623.07681002795830000000, 4304.10245885353920000000, 4798.97424162414150000000, 4278.97425433979880000000, 4296.41015134933330000000, 4463.58963444074930000000, 4873.33321416480160000000, 4475.38450594719870000000, 4168.71784677950930000000, 4549.74347848785870000000, 4310.25630485690450000000, 432.00000000000000000000, 4.00000000000000000000, 4.00000000000000000000, 4.00000000000000000000, 4.00000000000000000000, 4.00000000000000000000, 4.00000000000000000000, 4.00000000000000000000, 4.00000000000000000000, 4.00000000000000000000, 4.00000000000000000000, 4.00000000000000000000, 4.00000000000000000000, 4.00000000000000000000, 4.00000000000000000000, 4.00000000000000000000, 4.00000000000000000000, 1663.00000000000000000000, 1684.00000000000000000000, 0.00000000000000000000
81.00000000000000000000, 0.00000000000000000000, 4073.33323372735140000000, 4722.05116658207860000000, 4219.99989680755060000000, 4624.10245102851970000000, 4308.71784335606300000000, 4797.94860062358110000000, 4276.92297233867700000000, 4292.82040784737000000000, 4461.02553193934640000000, 4876.41013716648470000000, 4475.38450594719870000000, 4169.74348778006970000000, 4552.82040148954180000000, 4310.76912535718470000000, 474.00000000000000000000, 4.00000000000000000000, 4.00000000000000000000, 4.00000000000000000000, 4.00000000000000000000, 4.00000000000000000000, 4.00000000000000000000, 4.00000000000000000000, 4.00000000000000000000, 4.00000000000000000000, 4.00000000000000000000, 4.00000000000000000000, 4.00000000000000000000, 4.00000000000000000000, 4.00000000000000000000, 4.00000000000000000000, 4.00000000000000000000, 1662.00000000000000000000, 1684.00000000000000000000, 0.00000000000000000000
82.00000000000000000000, 0.00000000000000000000, 4075.38451572847320000000, 4724.10244858320040000000, 4215.89733280530710000000, 4624.61527152879990000000, 4309.74348435662340000000, 4797.43578012330000000000, 4278.46143383951860000000, 4293.84604884793040000000, 4460.51271143906620000000, 4877.94859866732530000000, 4475.38450594719870000000, 4171.79476978119150000000, 4555.38450399094380000000, 4309.74348435662340000000, 499.00000000000000000000, 4.00000000000000000000, 4.00000000000000000000, 4.00000000000000000000, 4.00000000000000000000, 4.00000000000000000000, 4.00000000000000000000, 4.00000000000000000000, 4.00000000000000000000, 4.00000000000000000000, 4.00000000000000000000, 4.00000000000000000000, 4.00000000000000000000, 4.00000000000000000000, 4.00000000000000000000, 4.00000000000000000000, 4.00000000000000000000, 1662.00000000000000000000, 1685.00000000000000000000, 0.00000000000000000000
83.00000000000000000000, 0.00000000000000000000, 4076.41015672903400000000, 4727.69219208516370000000, 4217.43579430614860000000, 4626.66655352992170000000, 4309.23066385634320000000, 4803.58962612666530000000, 4285.12810034316410000000, 4298.46143335045510000000, 4472.30758294551560000000, 4880.51270116872820000000, 4475.89732644747890000000, 4169.74348778006970000000, 4555.38450399094380000000, 4311.79476635774520000000, 499.00000000000000000000, 4.00000000000000000000, 4.00000000000000000000, 4.00000000000000000000, 4.00000000000000000000, 4.00000000000000000000, 4.00000000000000000000, 4.00000000000000000000, 4.00000000000000000000, 4.00000000000000000000, 4.00000000000000000000, 4.00000000000000000000, 4.00000000000000000000, 4.00000000000000000000, 4.00000000000000000000, 4.00000000000000000000, 4.00000000000000000000, 1662.00000000000000000000, 1686.00000000000000000000, 0.00000000000000000000
84.00000000000000000000, 0.00000000000000000000, 4074.87169522819290000000, 4728.71783308572410000000, 4215.89733280530710000000, 4626.15373302964140000000, 4306.15374085466100000000, 4804.61526712722570000000, 4285.64092084344430000000, 4301.53835635213730000000, 4474.87168544691850000000, 4879.48706016816690000000, 4474.87168544691850000000, 4169.23066727978950000000, 4554.87168349066270000000, 4311.79476635774520000000, 432.00000000000000000000, 4.00000000000000000000, 4.00000000000000000000, 4.00000000000000000000, 4.00000000000000000000, 4.00000000000000000000, 4.00000000000000000000, 4.00000000000000000000, 4.00000000000000000000, 4.00000000000000000000, 4.00000000000000000000, 4.00000000000000000000, 4.00000000000000000000, 4.00000000000000000000, 4.00000000000000000000, 4.00000000000000000000, 4.00000000000000000000, 1663.00000000000000000000, 1686.00000000000000000000, 0.00000000000000000000
85.00000000000000000000, 0.00000000000000000000, 4076.41015672903400000000, 4725.64091008404190000000, 4215.89733280530710000000, 4618.97424602571480000000, 4303.58963835325900000000, 4798.97424162414150000000, 4281.02553634092060000000, 4303.58963835325900000000, 4464.61527544130970000000, 4874.87167566564310000000, 4475.89732644747890000000, 4169.74348778006970000000, 4555.38450399094380000000, 4310.25630485690450000000, 474.00000000000000000000, 4.00000000000000000000, 4.00000000000000000000, 4.00000000000000000000, 4.00000000000000000000, 4.00000000000000000000, 4.00000000000000000000, 4.00000000000000000000, 4.00000000000000000000, 4.00000000000000000000, 4.00000000000000000000, 4.00000000000000000000, 4.00000000000000000000, 4.00000000000000000000, 4.00000000000000000000, 4.00000000000000000000, 4.00000000000000000000, 1661.00000000000000000000, 1688.00000000000000000000, 0.00000000000000000000
86.00000000000000000000, 0.00000000000000000000, 4076.41015672903400000000, 4721.02552558151820000000, 4218.97425580699020000000, 4613.84604102291090000000, 4302.56399735269770000000, 4797.94860062358110000000, 4280.51271584064030000000, 4306.15374085466100000000, 4468.20501894327300000000, 4875.38449616592330000000, 4476.41014694775910000000, 4169.74348778006970000000, 4551.79476048898050000000, 4310.76912535718470000000, 499.00000000000000000000, 4.00000000000000000000, 4.00000000000000000000, 4.00000000000000000000, 4.00000000000000000000, 4.00000000000000000000, 4.00000000000000000000, 4.00000000000000000000, 4.00000000000000000000, 4.00000000000000000000, 4.00000000000000000000, 4.00000000000000000000, 4.00000000000000000000, 4.00000000000000000000, 4.00000000000000000000, 4.00000000000000000000, 4.00000000000000000000, 1663.00000000000000000000, 1686.00000000000000000000, 0.00000000000000000000
87.00000000000000000000, 0.00000000000000000000, 4067.69220822426720000000, 4717.94860257983600000000, 4218.46143530671000000000, 4615.89732302403260000000, 4298.46143335045510000000, 4798.97424162414150000000, 4282.05117734148100000000, 4305.64092035438080000000, 4475.38450594719870000000, 4876.41013716648470000000, 4468.71783944355320000000, 4168.20502627922910000000, 4540.51270948281130000000, 4304.10245885353920000000, 499.00000000000000000000, 4.00000000000000000000, 4.00000000000000000000, 4.00000000000000000000, 4.00000000000000000000, 4.00000000000000000000, 4.00000000000000000000, 4.00000000000000000000, 4.00000000000000000000, 4.00000000000000000000, 4.00000000000000000000, 4.00000000000000000000, 4.00000000000000000000, 4.00000000000000000000, 4.00000000000000000000, 4.00000000000000000000, 4.00000000000000000000, 1662.00000000000000000000, 1688.00000000000000000000, 0.00000000000000000000
88.00000000000000000000, 0.00000000000000000000, 4062.05118272118260000000, 4713.33321807731230000000, 4213.33323030390510000000, 4615.38450252375240000000, 4296.92297184961350000000, 4796.41013912273960000000, 4279.48707484007900000000, 4297.43579234989370000000, 4464.10245494102950000000, 4875.38449616592330000000, 4462.05117293990770000000, 4162.56400077614400000000, 4533.33322247888550000000, 4294.35886934821160000000, 432.00000000000000000000, 4.00000000000000000000, 4.00000000000000000000, 4.00000000000000000000, 4.00000000000000000000, 4.00000000000000000000, 4.00000000000000000000, 4.00000000000000000000, 4.00000000000000000000, 4.00000000000000000000, 4.00000000000000000000, 4.00000000000000000000, 4.00000000000000000000, 4.00000000000000000000, 4.00000000000000000000, 4.00000000000000000000, 4.00000000000000000000, 1663.00000000000000000000, 1688.00000000000000000000, 0.00000000000000000000
89.00000000000000000000, 0.00000000000000000000, 4061.02554172062170000000, 4704.10244907226480000000, 4205.64092279969920000000, 4607.17937451926540000000, 4298.97425385073530000000, 4796.92295962301980000000, 4276.92297233867700000000, 4293.33322834765020000000, 4456.92296793710370000000, 4873.84603466508270000000, 4463.07681394046810000000, 4158.97425727418160000000, 4534.87168397972710000000, 4293.33322834765020000000, 474.00000000000000000000, 4.00000000000000000000, 4.00000000000000000000, 4.00000000000000000000, 4.00000000000000000000, 4.00000000000000000000, 4.00000000000000000000, 4.00000000000000000000, 4.00000000000000000000, 4.00000000000000000000, 4.00000000000000000000, 4.00000000000000000000, 4.00000000000000000000, 4.00000000000000000000, 4.00000000000000000000, 4.00000000000000000000, 4.00000000000000000000, 1663.00000000000000000000, 1688.00000000000000000000, 0.00000000000000000000
90.00000000000000000000, 0.00000000000000000000, 4057.43579821865890000000, 4701.53834657086190000000, 4204.61528179913880000000, 4602.05116951646140000000, 4299.48707435101550000000, 4798.97424162414150000000, 4276.41015183839680000000, 4297.43579234989370000000, 4461.53835243962750000000, 4873.33321416480160000000, 4462.56399344018790000000, 4161.02553927530330000000, 4535.38450448000730000000, 4297.94861285017400000000, 499.00000000000000000000, 4.00000000000000000000, 4.00000000000000000000, 4.00000000000000000000, 4.00000000000000000000, 4.00000000000000000000, 4.00000000000000000000, 4.00000000000000000000, 4.00000000000000000000, 4.00000000000000000000, 4.00000000000000000000, 4.00000000000000000000, 4.00000000000000000000, 4.00000000000000000000, 4.00000000000000000000, 4.00000000000000000000, 4.00000000000000000000, 1663.00000000000000000000, 1689.00000000000000000000, 0.00000000000000000000
91.00000000000000000000, 0.00000000000000000000, 4062.05118272118260000000, 4711.79475657647070000000, 4213.84605080418620000000, 4611.28193852150890000000, 4306.15374085466100000000, 4799.48706212442180000000, 4279.48707484007900000000, 4298.97425385073530000000, 4460.51271143906620000000, 4874.35885516536290000000, 4463.07681394046810000000, 4167.17938527866770000000, 4541.02552998309150000000, 4303.07681785297880000000, 499.00000000000000000000, 4.00000000000000000000, 4.00000000000000000000, 4.00000000000000000000, 4.00000000000000000000, 4.00000000000000000000, 4.00000000000000000000, 4.00000000000000000000, 4.00000000000000000000, 4.00000000000000000000, 4.00000000000000000000, 4.00000000000000000000, 4.00000000000000000000, 4.00000000000000000000, 4.00000000000000000000, 4.00000000000000000000, 4.00000000000000000000, 1663.00000000000000000000, 1689.00000000000000000000, 0.00000000000000000000
92.00000000000000000000, 0.00000000000000000000, 4073.84605422763210000000, 4718.97424358039640000000, 4217.43579430614860000000, 4617.43578452487420000000, 4307.69220235550260000000, 4800.51270312498310000000, 4280.51271584064030000000, 4297.43579234989370000000, 4458.46142943794440000000, 4874.87167566564310000000, 4470.25630094439480000000, 4169.74348778006970000000, 4551.79476048898050000000, 4306.15374085466100000000, 432.00000000000000000000, 4.00000000000000000000, 4.00000000000000000000, 4.00000000000000000000, 4.00000000000000000000, 4.00000000000000000000, 4.00000000000000000000, 4.00000000000000000000, 4.00000000000000000000, 4.00000000000000000000, 4.00000000000000000000, 4.00000000000000000000, 4.00000000000000000000, 4.00000000000000000000, 4.00000000000000000000, 4.00000000000000000000, 4.00000000000000000000, 1664.00000000000000000000, 1689.00000000000000000000, 0.00000000000000000000
93.00000000000000000000, 0.00000000000000000000, 4077.43579772959490000000, 4717.43578207955490000000, 4214.87169180474670000000, 4613.33322052263070000000, 4297.43579234989370000000, 4798.97424162414150000000, 4277.43579283895720000000, 4297.43579234989370000000, 4463.07681394046810000000, 4874.35885516536290000000, 4475.89732644747890000000, 4166.66656477838750000000, 4554.87168349066270000000, 4308.71784335606300000000, 474.00000000000000000000, 4.00000000000000000000, 4.00000000000000000000, 4.00000000000000000000, 4.00000000000000000000, 4.00000000000000000000, 4.00000000000000000000, 4.00000000000000000000, 4.00000000000000000000, 4.00000000000000000000, 4.00000000000000000000, 4.00000000000000000000, 4.00000000000000000000, 4.00000000000000000000, 4.00000000000000000000, 4.00000000000000000000, 4.00000000000000000000, 1663.00000000000000000000, 1687.00000000000000000000, 0.00000000000000000000
94.00000000000000000000, 0.00000000000000000000, 4075.38451572847320000000, 4718.46142308011620000000, 4216.41015330558820000000, 4613.33322052263070000000, 4297.94861285017400000000, 4797.94860062358110000000, 4276.41015183839680000000, 4297.43579234989370000000, 4463.07681394046810000000, 4875.38449616592330000000, 4471.79476244523540000000, 4171.28194928091120000000, 4551.79476048898050000000, 4316.92297136055000000000, 499.00000000000000000000, 4.00000000000000000000, 4.00000000000000000000, 4.00000000000000000000, 4.00000000000000000000, 4.00000000000000000000, 4.00000000000000000000, 4.00000000000000000000, 4.00000000000000000000, 4.00000000000000000000, 4.00000000000000000000, 4.00000000000000000000, 4.00000000000000000000, 4.00000000000000000000, 4.00000000000000000000, 4.00000000000000000000, 4.00000000000000000000, 1663.00000000000000000000, 1689.00000000000000000000, 0.00000000000000000000
95.00000000000000000000, 0.00000000000000000000, 4078.46143873015580000000, 4718.46142308011620000000, 4218.97425580699020000000, 4617.43578452487420000000, 4304.61527935381950000000, 4798.97424162414150000000, 4277.43579283895720000000, 4296.92297184961350000000, 4456.41014743682260000000, 4875.38449616592330000000, 4466.15373694215120000000, 4178.46143628483700000000, 4550.25629898813900000000, 4324.61527886475600000000, 499.00000000000000000000, 4.00000000000000000000, 4.00000000000000000000, 4.00000000000000000000, 4.00000000000000000000, 4.00000000000000000000, 4.00000000000000000000, 4.00000000000000000000, 4.00000000000000000000, 4.00000000000000000000, 4.00000000000000000000, 4.00000000000000000000, 4.00000000000000000000, 4.00000000000000000000, 4.00000000000000000000, 4.00000000000000000000, 4.00000000000000000000, 1664.00000000000000000000, 1687.00000000000000000000, 0.00000000000000000000
96.00000000000000000000, 0.00000000000000000000, 4087.69220773520330000000, 4722.56398708235970000000, 4224.61528131007440000000, 4618.46142552543460000000, 4300.51271535157590000000, 4799.99988262470200000000, 4278.97425433979880000000, 4297.94861285017400000000, 4457.43578843738400000000, 4875.89731666620450000000, 4468.71783944355320000000, 4184.61528228820230000000, 4552.82040148954180000000, 4330.76912486812130000000, 432.00000000000000000000, 4.00000000000000000000, 4.00000000000000000000, 4.00000000000000000000, 4.00000000000000000000, 4.00000000000000000000, 4.00000000000000000000, 4.00000000000000000000, 4.00000000000000000000, 4.00000000000000000000, 4.00000000000000000000, 4.00000000000000000000, 4.00000000000000000000, 4.00000000000000000000, 4.00000000000000000000, 4.00000000000000000000, 4.00000000000000000000, 1663.00000000000000000000, 1688.00000000000000000000, 0.00000000000000000000
97.00000000000000000000, 0.00000000000000000000, 4093.84605373856810000000, 4728.20501258544390000000, 4234.87169131568320000000, 4619.48706652599590000000, 4298.97425385073530000000, 4799.48706212442180000000, 4281.02553634092060000000, 4296.92297184961350000000, 4463.07681394046810000000, 4876.41013716648470000000, 4474.87168544691850000000, 4193.84605129324970000000, 4554.87168349066270000000, 4340.51271437344890000000, 474.00000000000000000000, 4.00000000000000000000, 4.00000000000000000000, 4.00000000000000000000, 4.00000000000000000000, 4.00000000000000000000, 4.00000000000000000000, 4.00000000000000000000, 4.00000000000000000000, 4.00000000000000000000, 4.00000000000000000000, 4.00000000000000000000, 4.00000000000000000000, 4.00000000000000000000, 4.00000000000000000000, 4.00000000000000000000, 4.00000000000000000000, 1664.00000000000000000000, 1687.00000000000000000000, 0.00000000000000000000
98.00000000000000000000, 0.00000000000000000000, 4094.87169473912900000000, 4724.10244858320040000000, 4235.38451181596340000000, 4618.97424602571480000000, 4304.10245885353920000000, 4798.46142112386130000000, 4283.58963884232250000000, 4295.89733084905220000000, 4463.07681394046810000000, 4873.84603466508270000000, 4473.84604444635720000000, 4201.02553829717540000000, 4552.82040148954180000000, 4346.15373987653310000000, 499.00000000000000000000, 4.00000000000000000000, 4.00000000000000000000, 4.00000000000000000000, 4.00000000000000000000, 4.00000000000000000000, 4.00000000000000000000, 4.00000000000000000000, 4.00000000000000000000, 4.00000000000000000000, 4.00000000000000000000, 4.00000000000000000000, 4.00000000000000000000, 4.00000000000000000000, 4.00000000000000000000, 4.00000000000000000000, 4.00000000000000000000, 1663.00000000000000000000, 1688.00000000000000000000, 0.00000000000000000000
99.00000000000000000000, 0.00000000000000000000, 4099.99989974193340000000, 4723.07680758264000000000, 4238.46143481764560000000, 4618.46142552543460000000, 4306.15374085466100000000, 4801.02552362526330000000, 4283.07681834204230000000, 4301.53835635213730000000, 4462.05117293990770000000, 4873.33321416480160000000, 4472.30758294551560000000, 4203.07682029829720000000, 4550.76911948842010000000, 4344.10245787541130000000, 499.00000000000000000000, 4.00000000000000000000, 4.00000000000000000000, 4.00000000000000000000, 4.00000000000000000000, 4.00000000000000000000, 4.00000000000000000000, 4.00000000000000000000, 4.00000000000000000000, 4.00000000000000000000, 4.00000000000000000000, 4.00000000000000000000, 4.00000000000000000000, 4.00000000000000000000, 4.00000000000000000000, 4.00000000000000000000, 4.00000000000000000000, 1664.00000000000000000000, 1687.00000000000000000000, 0.00000000000000000000
100.00000000000000000000, 0.00000000000000000000, 4108.71784824670070000000, 4732.82039708796760000000, 4245.64092182157130000000, 4626.15373302964140000000, 4309.74348435662340000000, 4806.15372862806730000000, 4281.53835684120080000000, 4304.10245885353920000000, 4465.12809594158990000000, 4877.94859866732530000000, 4475.38450594719870000000, 4203.07682029829720000000, 4551.79476048898050000000, 4344.61527837569250000000, 432.00000000000000000000, 4.00000000000000000000, 4.00000000000000000000, 4.00000000000000000000, 4.00000000000000000000, 4.00000000000000000000, 4.00000000000000000000, 4.00000000000000000000, 4.00000000000000000000, 4.00000000000000000000, 4.00000000000000000000, 4.00000000000000000000, 4.00000000000000000000, 4.00000000000000000000, 4.00000000000000000000, 4.00000000000000000000, 4.00000000000000000000, 1663.00000000000000000000, 1687.00000000000000000000, 0.00000000000000000000
101.00000000000000000000, 0.00000000000000000000, 4105.12810474473740000000, 4736.92296109021120000000, 4240.51271681876730000000, 4632.82039953328600000000, 4311.28194585746500000000, 4803.58962612666530000000, 4281.53835684120080000000, 4297.43579234989370000000, 4462.56399344018790000000, 4873.84603466508270000000, 4476.92296744803930000000, 4202.56399979801700000000, 4553.84604249010230000000, 4344.10245787541130000000, 474.00000000000000000000, 4.00000000000000000000, 4.00000000000000000000, 4.00000000000000000000, 4.00000000000000000000, 4.00000000000000000000, 4.00000000000000000000, 4.00000000000000000000, 4.00000000000000000000, 4.00000000000000000000, 4.00000000000000000000, 4.00000000000000000000, 4.00000000000000000000, 4.00000000000000000000, 4.00000000000000000000, 4.00000000000000000000, 4.00000000000000000000, 1662.00000000000000000000, 1689.00000000000000000000, 0.00000000000000000000
102.00000000000000000000, 0.00000000000000000000, 4092.30759223772700000000, 4731.28193558712610000000, 4232.82040931456140000000, 4625.64091252936030000000, 4302.05117685241750000000, 4797.43578012330000000000, 4280.51271584064030000000, 4291.79476684680960000000, 4454.35886543570180000000, 4862.05116315863320000000, 4471.79476244523540000000, 4199.99989729661500000000, 4551.28193998870030000000, 4334.87168887036390000000, 499.00000000000000000000, 4.00000000000000000000, 4.00000000000000000000, 4.00000000000000000000, 4.00000000000000000000, 4.00000000000000000000, 4.00000000000000000000, 4.00000000000000000000, 4.00000000000000000000, 4.00000000000000000000, 4.00000000000000000000, 4.00000000000000000000, 4.00000000000000000000, 4.00000000000000000000, 4.00000000000000000000, 4.00000000000000000000, 4.00000000000000000000, 1662.00000000000000000000, 1688.00000000000000000000, 0.00000000000000000000
103.00000000000000000000, 0.00000000000000000000, 4088.20502823548350000000, 4726.66655108460240000000, 4229.74348631287920000000, 4616.41014352431280000000, 4294.35886934821160000000, 4797.43578012330000000000, 4277.43579283895720000000, 4294.87168984849180000000, 4454.35886543570180000000, 4857.94859915638970000000, 4464.10245494102950000000, 4196.92297429493190000000, 4543.58963248449440000000, 4326.66656086587770000000, 499.00000000000000000000, 4.00000000000000000000, 4.00000000000000000000, 4.00000000000000000000, 4.00000000000000000000, 4.00000000000000000000, 4.00000000000000000000, 4.00000000000000000000, 4.00000000000000000000, 4.00000000000000000000, 4.00000000000000000000, 4.00000000000000000000, 4.00000000000000000000, 4.00000000000000000000, 4.00000000000000000000, 4.00000000000000000000, 4.00000000000000000000, 1661.00000000000000000000, 1689.00000000000000000000, 0.00000000000000000000
104.00000000000000000000, 0.00000000000000000000, 4085.12810523380130000000, 4721.02552558151820000000, 4221.53835830839220000000, 4616.41014352431280000000, 4296.41015134933330000000, 4798.46142112386130000000, 4273.84604933699480000000, 4293.84604884793040000000, 4455.89732693654240000000, 4858.97424015695010000000, 4457.94860893766420000000, 4189.74348729100620000000, 4537.94860698140930000000, 4322.05117636335400000000, 432.00000000000000000000, 4.00000000000000000000, 4.00000000000000000000, 4.00000000000000000000, 4.00000000000000000000, 4.00000000000000000000, 4.00000000000000000000, 4.00000000000000000000, 4.00000000000000000000, 4.00000000000000000000, 4.00000000000000000000, 4.00000000000000000000, 4.00000000000000000000, 4.00000000000000000000, 4.00000000000000000000, 4.00000000000000000000, 4.00000000000000000000, 1662.00000000000000000000, 1689.00000000000000000000, 0.00000000000000000000
105.00000000000000000000, 0.00000000000000000000, 4075.38451572847320000000, 4719.99988458095780000000, 4215.89733280530710000000, 4615.89732302403260000000, 4304.10245885353920000000, 4797.94860062358110000000, 4273.84604933699480000000, 4282.56399784176210000000, 4449.23066043289690000000, 4855.38449665498770000000, 4456.92296793710370000000, 4183.07682078736070000000, 4536.41014548056770000000, 4317.94861236111050000000, 474.00000000000000000000, 4.00000000000000000000, 4.00000000000000000000, 4.00000000000000000000, 4.00000000000000000000, 4.00000000000000000000, 4.00000000000000000000, 4.00000000000000000000, 4.00000000000000000000, 4.00000000000000000000, 4.00000000000000000000, 4.00000000000000000000, 4.00000000000000000000, 4.00000000000000000000, 4.00000000000000000000, 4.00000000000000000000, 4.00000000000000000000, 1662.00000000000000000000, 1689.00000000000000000000, 0.00000000000000000000
106.00000000000000000000, 0.00000000000000000000, 4072.82041322707120000000, 4728.20501258544390000000, 4216.92297380586840000000, 4613.84604102291090000000, 4309.23066385634320000000, 4797.94860062358110000000, 4275.89733133811660000000, 4279.48707484007900000000, 4446.66655793149490000000, 4854.35885565442640000000, 4455.89732693654240000000, 4184.10246178792200000000, 4537.94860698140930000000, 4316.41015086026890000000, 499.00000000000000000000, 4.00000000000000000000, 4.00000000000000000000, 4.00000000000000000000, 4.00000000000000000000, 4.00000000000000000000, 4.00000000000000000000, 4.00000000000000000000, 4.00000000000000000000, 4.00000000000000000000, 4.00000000000000000000, 4.00000000000000000000, 4.00000000000000000000, 4.00000000000000000000, 4.00000000000000000000, 4.00000000000000000000, 4.00000000000000000000, 1662.00000000000000000000, 1689.00000000000000000000, 0.00000000000000000000
107.00000000000000000000, 0.00000000000000000000, 4083.07682323267950000000, 4734.35885858880920000000, 4221.02553780811190000000, 4620.51270752655640000000, 4310.76912535718470000000, 4798.46142112386130000000, 4278.46143383951860000000, 4290.25630534596800000000, 4456.92296793710370000000, 4861.02552215807190000000, 4461.02553193934640000000, 4185.12810278848250000000, 4544.61527348505480000000, 4322.56399686363420000000, 499.00000000000000000000, 4.00000000000000000000, 4.00000000000000000000, 4.00000000000000000000, 4.00000000000000000000, 4.00000000000000000000, 4.00000000000000000000, 4.00000000000000000000, 4.00000000000000000000, 4.00000000000000000000, 4.00000000000000000000, 4.00000000000000000000, 4.00000000000000000000, 4.00000000000000000000, 4.00000000000000000000, 4.00000000000000000000, 4.00000000000000000000, 1662.00000000000000000000, 1690.00000000000000000000, 0.00000000000000000000
108.00000000000000000000, 0.00000000000000000000, 4091.79477173744680000000, 4740.51270459217360000000, 4227.69220431175750000000, 4627.17937403020190000000, 4312.30758685802630000000, 4800.51270312498310000000, 4281.02553634092060000000, 4297.94861285017400000000, 4463.58963444074930000000, 4870.76911166339960000000, 4472.30758294551560000000, 4189.74348729100620000000, 4555.89732449122400000000, 4332.82040686924300000000, 432.00000000000000000000, 4.00000000000000000000, 4.00000000000000000000, 4.00000000000000000000, 4.00000000000000000000, 4.00000000000000000000, 4.00000000000000000000, 4.00000000000000000000, 4.00000000000000000000, 4.00000000000000000000, 4.00000000000000000000, 4.00000000000000000000, 4.00000000000000000000, 4.00000000000000000000, 4.00000000000000000000, 4.00000000000000000000, 4.00000000000000000000, 1663.00000000000000000000, 1689.00000000000000000000, 0.00000000000000000000
109.00000000000000000000, 0.00000000000000000000, 4091.28195123716610000000, 4747.69219159610020000000, 4230.76912731343960000000, 4628.20501503076230000000, 4309.74348435662340000000, 4801.53834412554350000000, 4282.56399784176210000000, 4293.33322834765020000000, 4457.94860893766420000000, 4876.41013716648470000000, 4476.41014694775910000000, 4198.46143579577350000000, 4563.07681149514970000000, 4337.94861187204700000000, 474.00000000000000000000, 4.00000000000000000000, 4.00000000000000000000, 4.00000000000000000000, 4.00000000000000000000, 4.00000000000000000000, 4.00000000000000000000, 4.00000000000000000000, 4.00000000000000000000, 4.00000000000000000000, 4.00000000000000000000, 4.00000000000000000000, 4.00000000000000000000, 4.00000000000000000000, 4.00000000000000000000, 4.00000000000000000000, 4.00000000000000000000, 1662.00000000000000000000, 1688.00000000000000000000, 0.00000000000000000000
110.00000000000000000000, 0.00000000000000000000, 4090.76913073688590000000, 4749.74347359722200000000, 4230.76912731343960000000, 4627.69219453048210000000, 4309.23066385634320000000, 4798.97424162414150000000, 4280.51271584064030000000, 4293.33322834765020000000, 4459.48707043850570000000, 4877.43577816704510000000, 4474.87168544691850000000, 4201.53835879745570000000, 4565.12809349627150000000, 4341.53835537400940000000, 499.00000000000000000000, 4.00000000000000000000, 4.00000000000000000000, 4.00000000000000000000, 4.00000000000000000000, 4.00000000000000000000, 4.00000000000000000000, 4.00000000000000000000, 4.00000000000000000000, 4.00000000000000000000, 4.00000000000000000000, 4.00000000000000000000, 4.00000000000000000000, 4.00000000000000000000, 4.00000000000000000000, 4.00000000000000000000, 4.00000000000000000000, 1663.00000000000000000000, 1687.00000000000000000000, 0.00000000000000000000
111.00000000000000000000, 0.00000000000000000000, 4096.92297674025120000000, 4747.69219159610020000000, 4235.89733231624360000000, 4626.66655352992170000000, 4308.71784335606300000000, 4796.92295962301980000000, 4276.92297233867700000000, 4295.38451034877200000000, 4464.61527544130970000000, 4877.43577816704510000000, 4477.43578794832050000000, 4202.56399979801700000000, 4566.15373449683190000000, 4345.64091937625290000000, 499.00000000000000000000, 4.00000000000000000000, 4.00000000000000000000, 4.00000000000000000000, 4.00000000000000000000, 4.00000000000000000000, 4.00000000000000000000, 4.00000000000000000000, 4.00000000000000000000, 4.00000000000000000000, 4.00000000000000000000, 4.00000000000000000000, 4.00000000000000000000, 4.00000000000000000000, 4.00000000000000000000, 4.00000000000000000000, 4.00000000000000000000, 1663.00000000000000000000, 1687.00000000000000000000, 0.00000000000000000000
112.00000000000000000000, 0.00000000000000000000, 4105.64092524501760000000, 4743.58962759385670000000, 4236.41015281652380000000, 4625.64091252936030000000, 4299.99989485129570000000, 4796.41013912273960000000, 4276.41015183839680000000, 4291.79476684680960000000, 4459.99989093878590000000, 4876.92295766676490000000, 4478.97424944916110000000, 4208.71784580138140000000, 4569.23065749851500000000, 4348.71784237793510000000, 432.00000000000000000000, 4.00000000000000000000, 4.00000000000000000000, 4.00000000000000000000, 4.00000000000000000000, 4.00000000000000000000, 4.00000000000000000000, 4.00000000000000000000, 4.00000000000000000000, 4.00000000000000000000, 4.00000000000000000000, 4.00000000000000000000, 4.00000000000000000000, 4.00000000000000000000, 4.00000000000000000000, 4.00000000000000000000, 4.00000000000000000000, 1663.00000000000000000000, 1686.00000000000000000000, 0.00000000000000000000
113.00000000000000000000, 0.00000000000000000000, 4106.15374574529870000000, 4736.92296109021120000000, 4233.33322981484160000000, 4625.12809202908010000000, 4294.87168984849180000000, 4795.38449812217820000000, 4278.97425433979880000000, 4291.79476684680960000000, 4460.51271143906620000000, 4876.92295766676490000000, 4478.46142894888090000000, 4215.38451230502690000000, 4569.74347799879520000000, 4352.30758587989840000000, 474.00000000000000000000, 4.00000000000000000000, 4.00000000000000000000, 4.00000000000000000000, 4.00000000000000000000, 4.00000000000000000000, 4.00000000000000000000, 4.00000000000000000000, 4.00000000000000000000, 4.00000000000000000000, 4.00000000000000000000, 4.00000000000000000000, 4.00000000000000000000, 4.00000000000000000000, 4.00000000000000000000, 4.00000000000000000000, 4.00000000000000000000, 1662.00000000000000000000, 1687.00000000000000000000, 0.00000000000000000000
114.00000000000000000000, 0.00000000000000000000, 4099.99989974193340000000, 4735.38449958936960000000, 4236.41015281652380000000, 4624.10245102851970000000, 4304.10245885353920000000, 4797.43578012330000000000, 4281.53835684120080000000, 4295.89733084905220000000, 4463.58963444074930000000, 4876.92295766676490000000, 4479.48706994944220000000, 4216.41015330558820000000, 4563.58963199543000000000, 4349.74348337849640000000, 499.00000000000000000000, 4.00000000000000000000, 4.00000000000000000000, 4.00000000000000000000, 4.00000000000000000000, 4.00000000000000000000, 4.00000000000000000000, 4.00000000000000000000, 4.00000000000000000000, 4.00000000000000000000, 4.00000000000000000000, 4.00000000000000000000, 4.00000000000000000000, 4.00000000000000000000, 4.00000000000000000000, 4.00000000000000000000, 4.00000000000000000000, 1663.00000000000000000000, 1685.00000000000000000000, 0.00000000000000000000
115.00000000000000000000, 0.00000000000000000000, 4093.84605373856810000000, 4736.41014058993100000000, 4234.35887081540300000000, 4623.58963052823860000000, 4310.76912535718470000000, 4799.99988262470200000000, 4280.51271584064030000000, 4294.87168984849180000000, 4454.87168593598200000000, 4868.20500916199760000000, 4473.84604444635720000000, 4204.61528179913880000000, 4551.28193998870030000000, 4335.89732987092520000000, 499.00000000000000000000, 4.00000000000000000000, 4.00000000000000000000, 4.00000000000000000000, 4.00000000000000000000, 4.00000000000000000000, 4.00000000000000000000, 4.00000000000000000000, 4.00000000000000000000, 4.00000000000000000000, 4.00000000000000000000, 4.00000000000000000000, 4.00000000000000000000, 4.00000000000000000000, 4.00000000000000000000, 4.00000000000000000000, 4.00000000000000000000, 1663.00000000000000000000, 1686.00000000000000000000, 0.00000000000000000000
116.00000000000000000000, 0.00000000000000000000, 4087.69220773520330000000, 4733.84603808852900000000, 4223.07681980923370000000, 4623.07681002795830000000, 4308.71784335606300000000, 4799.48706212442180000000, 4279.48707484007900000000, 4288.20502334484630000000, 4452.30758343458000000000, 4859.48706065723040000000, 4463.07681394046810000000, 4188.71784629044580000000, 4542.56399148393300000000, 4324.10245836447580000000, 432.00000000000000000000, 4.00000000000000000000, 4.00000000000000000000, 4.00000000000000000000, 4.00000000000000000000, 4.00000000000000000000, 4.00000000000000000000, 4.00000000000000000000, 4.00000000000000000000, 4.00000000000000000000, 4.00000000000000000000, 4.00000000000000000000, 4.00000000000000000000, 4.00000000000000000000, 4.00000000000000000000, 4.00000000000000000000, 4.00000000000000000000, 1663.00000000000000000000, 1685.00000000000000000000, 0.00000000000000000000
117.00000000000000000000, 0.00000000000000000000, 4081.02554123155780000000, 4733.33321758824790000000, 4215.89733280530710000000, 4619.48706652599590000000, 4308.20502285578280000000, 4799.48706212442180000000, 4282.05117734148100000000, 4282.05117734148100000000, 4457.43578843738400000000, 4859.99988115751150000000, 4458.46142943794440000000, 4182.05117978680030000000, 4540.51270948281130000000, 4318.46143286139070000000, 474.00000000000000000000, 4.00000000000000000000, 4.00000000000000000000, 4.00000000000000000000, 4.00000000000000000000, 4.00000000000000000000, 4.00000000000000000000, 4.00000000000000000000, 4.00000000000000000000, 4.00000000000000000000, 4.00000000000000000000, 4.00000000000000000000, 4.00000000000000000000, 4.00000000000000000000, 4.00000000000000000000, 4.00000000000000000000, 4.00000000000000000000, 1662.00000000000000000000, 1685.00000000000000000000, 0.00000000000000000000
118.00000000000000000000, 0.00000000000000000000, 4075.38451572847320000000, 4732.30757658768740000000, 4212.82040980362490000000, 4616.41014352431280000000, 4306.15374085466100000000, 4798.97424162414150000000, 4278.97425433979880000000, 4279.99989534035920000000, 4449.23066043289690000000, 4859.48706065723040000000, 4457.94860893766420000000, 4174.35887228259340000000, 4536.92296598084890000000, 4310.76912535718470000000, 499.00000000000000000000, 4.00000000000000000000, 4.00000000000000000000, 4.00000000000000000000, 4.00000000000000000000, 4.00000000000000000000, 4.00000000000000000000, 4.00000000000000000000, 4.00000000000000000000, 4.00000000000000000000, 4.00000000000000000000, 4.00000000000000000000, 4.00000000000000000000, 4.00000000000000000000, 4.00000000000000000000, 4.00000000000000000000, 4.00000000000000000000, 1663.00000000000000000000, 1685.00000000000000000000, 0.00000000000000000000
119.00000000000000000000, 0.00000000000000000000, 4074.35887472791230000000, 4731.28193558712610000000, 4213.33323030390510000000, 4617.94860502515440000000, 4303.58963835325900000000, 4796.41013912273960000000, 4269.23066483447110000000, 4282.05117734148100000000, 4448.20501943233650000000, 4856.41013765554820000000, 4459.48707043850570000000, 4167.69220577894790000000, 4536.92296598084890000000, 4307.69220235550260000000, 499.00000000000000000000, 4.00000000000000000000, 4.00000000000000000000, 4.00000000000000000000, 4.00000000000000000000, 4.00000000000000000000, 4.00000000000000000000, 4.00000000000000000000, 4.00000000000000000000, 4.00000000000000000000, 4.00000000000000000000, 4.00000000000000000000, 4.00000000000000000000, 4.00000000000000000000, 4.00000000000000000000, 4.00000000000000000000, 4.00000000000000000000, 1662.00000000000000000000, 1685.00000000000000000000, 0.00000000000000000000
120.00000000000000000000, 0.00000000000000000000, 4075.89733622875380000000, 4739.48706359161320000000, 4215.38451230502690000000, 4618.97424602571480000000, 4302.56399735269770000000, 4795.38449812217820000000, 4264.61528033194740000000, 4283.07681834204230000000, 4459.48707043850570000000, 4861.02552215807190000000, 4462.05117293990770000000, 4174.87169278287460000000, 4543.58963248449440000000, 4315.89733035998870000000, 432.00000000000000000000, 4.00000000000000000000, 4.00000000000000000000, 4.00000000000000000000, 4.00000000000000000000, 4.00000000000000000000, 4.00000000000000000000, 4.00000000000000000000, 4.00000000000000000000, 4.00000000000000000000, 4.00000000000000000000, 4.00000000000000000000, 4.00000000000000000000, 4.00000000000000000000, 4.00000000000000000000, 4.00000000000000000000, 4.00000000000000000000, 1663.00000000000000000000, 1685.00000000000000000000, 0.00000000000000000000
121.00000000000000000000, 0.00000000000000000000, 4077.43579772959490000000, 4748.20501209638040000000, 4214.87169180474670000000, 4619.48706652599590000000, 4297.94861285017400000000, 4794.87167762189800000000, 4265.12810083222760000000, 4279.48707484007900000000, 4452.30758343458000000000, 4863.07680415919370000000, 4460.51271143906620000000, 4183.58964128764090000000, 4543.07681198421320000000, 4319.48707386195200000000, 474.00000000000000000000, 4.00000000000000000000, 4.00000000000000000000, 4.00000000000000000000, 4.00000000000000000000, 4.00000000000000000000, 4.00000000000000000000, 4.00000000000000000000, 4.00000000000000000000, 4.00000000000000000000, 4.00000000000000000000, 4.00000000000000000000, 4.00000000000000000000, 4.00000000000000000000, 4.00000000000000000000, 4.00000000000000000000, 4.00000000000000000000, 1664.00000000000000000000, 1684.00000000000000000000, 0.00000000000000000000
122.00000000000000000000, 0.00000000000000000000, 4079.48707973071670000000, 4749.74347359722200000000, 4215.89733280530710000000, 4624.61527152879990000000, 4297.43579234989370000000, 4793.33321612105740000000, 4263.58963933138600000000, 4276.92297233867700000000, 4445.12809643065430000000, 4857.94859915638970000000, 4463.07681394046810000000, 4182.56400028708050000000, 4543.58963248449440000000, 4317.94861236111050000000, 499.00000000000000000000, 4.00000000000000000000, 4.00000000000000000000, 4.00000000000000000000, 4.00000000000000000000, 4.00000000000000000000, 4.00000000000000000000, 4.00000000000000000000, 4.00000000000000000000, 4.00000000000000000000, 4.00000000000000000000, 4.00000000000000000000, 4.00000000000000000000, 4.00000000000000000000, 4.00000000000000000000, 4.00000000000000000000, 4.00000000000000000000, 1663.00000000000000000000, 1685.00000000000000000000, 0.00000000000000000000
123.00000000000000000000, 0.00000000000000000000, 4083.07682323267950000000, 4750.76911459778240000000, 4219.99989680755060000000, 4629.74347653160380000000, 4304.10245885353920000000, 4795.38449812217820000000, 4263.07681883110580000000, 4279.48707484007900000000, 4458.97424993822550000000, 4865.64090666059560000000, 4474.35886494663740000000, 4184.10246178792200000000, 4555.38450399094380000000, 4322.56399686363420000000, 499.00000000000000000000, 4.00000000000000000000, 4.00000000000000000000, 4.00000000000000000000, 4.00000000000000000000, 4.00000000000000000000, 4.00000000000000000000, 4.00000000000000000000, 4.00000000000000000000, 4.00000000000000000000, 4.00000000000000000000, 4.00000000000000000000, 4.00000000000000000000, 4.00000000000000000000, 4.00000000000000000000, 4.00000000000000000000, 4.00000000000000000000, 1663.00000000000000000000, 1684.00000000000000000000, 0.00000000000000000000
124.00000000000000000000, 0.00000000000000000000, 4083.07682323267950000000, 4750.76911459778240000000, 4219.48707630727040000000, 4626.66655352992170000000, 4305.64092035438080000000, 4797.43578012330000000000, 4265.12810083222760000000, 4282.05117734148100000000, 4465.64091644187010000000, 4875.89731666620450000000, 4477.43578794832050000000, 4188.20502579016470000000, 4558.97424749290620000000, 4328.20502236671840000000, 432.00000000000000000000, 4.00000000000000000000, 4.00000000000000000000, 4.00000000000000000000, 4.00000000000000000000, 4.00000000000000000000, 4.00000000000000000000, 4.00000000000000000000, 4.00000000000000000000, 4.00000000000000000000, 4.00000000000000000000, 4.00000000000000000000, 4.00000000000000000000, 4.00000000000000000000, 4.00000000000000000000, 4.00000000000000000000, 4.00000000000000000000, 1664.00000000000000000000, 1684.00000000000000000000, 0.00000000000000000000
125.00000000000000000000, 0.00000000000000000000, 4083.07682323267950000000, 4748.71783259666060000000, 4215.38451230502690000000, 4619.48706652599590000000, 4299.48707435101550000000, 4796.92295962301980000000, 4265.64092133250780000000, 4279.99989534035920000000, 4460.51271143906620000000, 4869.74347066283920000000, 4475.38450594719870000000, 4187.17938478960420000000, 4553.84604249010230000000, 4327.69220186643820000000, 474.00000000000000000000, 4.00000000000000000000, 4.00000000000000000000, 4.00000000000000000000, 4.00000000000000000000, 4.00000000000000000000, 4.00000000000000000000, 4.00000000000000000000, 4.00000000000000000000, 4.00000000000000000000, 4.00000000000000000000, 4.00000000000000000000, 4.00000000000000000000, 4.00000000000000000000, 4.00000000000000000000, 4.00000000000000000000, 4.00000000000000000000, 1664.00000000000000000000, 1684.00000000000000000000, 0.00000000000000000000
126.00000000000000000000, 0.00000000000000000000, 4084.61528473352060000000, 4746.15373009525870000000, 4217.43579430614860000000, 4616.92296402459400000000, 4295.38451034877200000000, 4795.38449812217820000000, 4267.17938283334930000000, 4278.46143383951860000000, 4460.51271143906620000000, 4859.99988115751150000000, 4470.76912144467500000000, 4183.07682078736070000000, 4551.28193998870030000000, 4318.97425336167090000000, 499.00000000000000000000, 4.00000000000000000000, 4.00000000000000000000, 4.00000000000000000000, 4.00000000000000000000, 4.00000000000000000000, 4.00000000000000000000, 4.00000000000000000000, 4.00000000000000000000, 4.00000000000000000000, 4.00000000000000000000, 4.00000000000000000000, 4.00000000000000000000, 4.00000000000000000000, 4.00000000000000000000, 4.00000000000000000000, 4.00000000000000000000, 1664.00000000000000000000, 1685.00000000000000000000, 0.00000000000000000000
127.00000000000000000000, 0.00000000000000000000, 4081.02554123155780000000, 4742.05116609301510000000, 4219.48707630727040000000, 4618.46142552543460000000, 4296.92297184961350000000, 4796.41013912273960000000, 4272.30758783615330000000, 4277.94861333923840000000, 4458.97424993822550000000, 4859.99988115751150000000, 4461.02553193934640000000, 4173.84605178231320000000, 4542.56399148393300000000, 4310.76912535718470000000, 499.00000000000000000000, 4.00000000000000000000, 4.00000000000000000000, 4.00000000000000000000, 4.00000000000000000000, 4.00000000000000000000, 4.00000000000000000000, 4.00000000000000000000, 4.00000000000000000000, 4.00000000000000000000, 4.00000000000000000000, 4.00000000000000000000, 4.00000000000000000000, 4.00000000000000000000, 4.00000000000000000000, 4.00000000000000000000, 4.00000000000000000000, 1665.00000000000000000000, 1684.00000000000000000000, 0.00000000000000000000
128.00000000000000000000, 0.00000000000000000000, 4076.41015672903400000000, 4741.53834559273490000000, 4215.89733280530710000000, 4616.41014352431280000000, 4299.99989485129570000000, 4798.46142112386130000000, 4276.41015183839680000000, 4278.97425433979880000000, 4458.97424993822550000000, 4868.71782966227780000000, 4462.56399344018790000000, 4168.20502627922910000000, 4540.51270948281130000000, 4312.30758685802630000000, 432.00000000000000000000, 4.00000000000000000000, 4.00000000000000000000, 4.00000000000000000000, 4.00000000000000000000, 4.00000000000000000000, 4.00000000000000000000, 4.00000000000000000000, 4.00000000000000000000, 4.00000000000000000000, 4.00000000000000000000, 4.00000000000000000000, 4.00000000000000000000, 4.00000000000000000000, 4.00000000000000000000, 4.00000000000000000000, 4.00000000000000000000, 1664.00000000000000000000, 1684.00000000000000000000, 0.00000000000000000000
0.00000000000000000000, 0.00000000000000000000, 4075.89733622875380000000, 4746.15373009525870000000, 4213.33323030390510000000, 4614.87168202347220000000, 4301.53835635213730000000, 4798.97424162414150000000, 4276.41015183839680000000, 4281.53835684120080000000, 4464.10245494102950000000, 4875.38449616592330000000, 4475.89732644747890000000, 4175.89733378343500000000, 4552.30758098926070000000, 4323.07681736391440000000, 491.00000000000000000000, 4.00000000000000000000, 4.00000000000000000000, 4.00000000000000000000, 4.00000000000000000000, 4.00000000000000000000, 4.00000000000000000000, 4.00000000000000000000, 4.00000000000000000000, 4.00000000000000000000, 4.00000000000000000000, 4.00000000000000000000, 4.00000000000000000000, 4.00000000000000000000, 4.00000000000000000000, 4.00000000000000000000, 4.00000000000000000000, 1665.00000000000000000000, 1684.00000000000000000000, 0.00000000000000000000
1.00000000000000000000, 0.00000000000000000000, 4079.48707973071670000000, 4748.71783259666060000000, 4216.41015330558820000000, 4622.05116902739790000000, 4305.12809985409970000000, 4798.97424162414150000000, 4278.46143383951860000000, 4282.05117734148100000000, 4464.10245494102950000000, 4876.41013716648470000000, 4477.94860844860070000000, 4183.58964128764090000000, 4556.92296549178450000000, 4328.20502236671840000000, 507.00000000000000000000, 4.00000000000000000000, 4.00000000000000000000, 4.00000000000000000000, 4.00000000000000000000, 4.00000000000000000000, 4.00000000000000000000, 4.00000000000000000000, 4.00000000000000000000, 4.00000000000000000000, 4.00000000000000000000, 4.00000000000000000000, 4.00000000000000000000, 4.00000000000000000000, 4.00000000000000000000, 4.00000000000000000000, 4.00000000000000000000, 1665.00000000000000000000, 1684.00000000000000000000, 0.00000000000000000000
2.00000000000000000000, 0.00000000000000000000, 4082.05118223211870000000, 4748.20501209638040000000, 4218.46143530671000000000, 4626.66655352992170000000, 4309.23066385634320000000, 4799.48706212442180000000, 4278.46143383951860000000, 4279.99989534035920000000, 4459.48707043850570000000, 4875.38449616592330000000, 4471.79476244523540000000, 4184.10246178792200000000, 4551.79476048898050000000, 4324.61527886475600000000, 529.00000000000000000000, 4.00000000000000000000, 4.00000000000000000000, 4.00000000000000000000, 4.00000000000000000000, 4.00000000000000000000, 4.00000000000000000000, 4.00000000000000000000, 4.00000000000000000000, 4.00000000000000000000, 4.00000000000000000000, 4.00000000000000000000, 4.00000000000000000000, 4.00000000000000000000, 4.00000000000000000000, 4.00000000000000000000, 4.00000000000000000000, 1665.00000000000000000000, 1685.00000000000000000000, 0.00000000000000000000
3.00000000000000000000, 0.00000000000000000000, 4085.64092573408150000000, 4748.20501209638040000000, 4217.43579430614860000000, 4624.10245102851970000000, 4310.25630485690450000000, 4799.99988262470200000000, 4269.23066483447110000000, 4278.46143383951860000000, 4458.97424993822550000000, 4873.84603466508270000000, 4474.87168544691850000000, 4181.02553878623890000000, 4552.30758098926070000000, 4324.61527886475600000000, 523.00000000000000000000, 4.00000000000000000000, 4.00000000000000000000, 4.00000000000000000000, 4.00000000000000000000, 4.00000000000000000000, 4.00000000000000000000, 4.00000000000000000000, 4.00000000000000000000, 4.00000000000000000000, 4.00000000000000000000, 4.00000000000000000000, 4.00000000000000000000, 4.00000000000000000000, 4.00000000000000000000, 4.00000000000000000000, 4.00000000000000000000, 1666.00000000000000000000, 1683.00000000000000000000, 0.00000000000000000000
4.00000000000000000000, 0.00000000000000000000, 4090.25631023660530000000, 4749.23065309694080000000, 4217.94861480642880000000, 4626.66655352992170000000, 4308.20502285578280000000, 4798.46142112386130000000, 4265.64092133250780000000, 4278.46143383951860000000, 4458.97424993822550000000, 4865.64090666059560000000, 4470.76912144467500000000, 4173.84605178231320000000, 4551.79476048898050000000, 4324.61527886475600000000, 513.00000000000000000000, 4.00000000000000000000, 4.00000000000000000000, 4.00000000000000000000, 4.00000000000000000000, 4.00000000000000000000, 4.00000000000000000000, 4.00000000000000000000, 4.00000000000000000000, 4.00000000000000000000, 4.00000000000000000000, 4.00000000000000000000, 4.00000000000000000000, 4.00000000000000000000, 4.00000000000000000000, 4.00000000000000000000, 4.00000000000000000000, 1666.00000000000000000000, 1685.00000000000000000000, 0.00000000000000000000
5.00000000000000000000, 0.00000000000000000000, 4092.30759223772700000000, 4752.30757609862390000000, 4218.97425580699020000000, 4630.76911753216520000000, 4309.23066385634320000000, 4796.92295962301980000000, 4275.38451083783550000000, 4278.97425433979880000000, 4457.43578843738400000000, 4861.53834265835210000000, 4463.58963444074930000000, 4168.20502627922910000000, 4549.23065798757850000000, 4319.48707386195200000000, 494.00000000000000000000, 4.00000000000000000000, 4.00000000000000000000, 4.00000000000000000000, 4.00000000000000000000, 4.00000000000000000000, 4.00000000000000000000, 4.00000000000000000000, 4.00000000000000000000, 4.00000000000000000000, 4.00000000000000000000, 4.00000000000000000000, 4.00000000000000000000, 4.00000000000000000000, 4.00000000000000000000, 4.00000000000000000000, 4.00000000000000000000, 1667.00000000000000000000, 1684.00000000000000000000, 0.00000000000000000000
6.00000000000000000000, 0.00000000000000000000, 4088.71784873576420000000, 4753.84603759946460000000, 4219.48707630727040000000, 4628.71783553104340000000, 4311.28194585746500000000, 4798.46142112386130000000, 4281.53835684120080000000, 4278.97425433979880000000, 4458.97424993822550000000, 4865.12808616031540000000, 4471.79476244523540000000, 4176.92297478399540000000, 4552.82040148954180000000, 4317.94861236111050000000, 514.00000000000000000000, 4.00000000000000000000, 4.00000000000000000000, 4.00000000000000000000, 4.00000000000000000000, 4.00000000000000000000, 4.00000000000000000000, 4.00000000000000000000, 4.00000000000000000000, 4.00000000000000000000, 4.00000000000000000000, 4.00000000000000000000, 4.00000000000000000000, 4.00000000000000000000, 4.00000000000000000000, 4.00000000000000000000, 4.00000000000000000000, 1667.00000000000000000000, 1685.00000000000000000000, 0.00000000000000000000
7.00000000000000000000, 0.00000000000000000000, 4084.10246423324040000000, 4751.28193509806260000000, 4219.48707630727040000000, 4627.17937403020190000000, 4304.61527935381950000000, 4797.94860062358110000000, 4277.94861333923840000000, 4279.48707484007900000000, 4457.94860893766420000000, 4862.56398365891350000000, 4473.33322394607690000000, 4182.05117978680030000000, 4552.30758098926070000000, 4318.46143286139070000000, 379.00000000000000000000, 4.00000000000000000000, 4.00000000000000000000, 4.00000000000000000000, 4.00000000000000000000, 4.00000000000000000000, 4.00000000000000000000, 4.00000000000000000000, 4.00000000000000000000, 4.00000000000000000000, 4.00000000000000000000, 4.00000000000000000000, 4.00000000000000000000, 4.00000000000000000000, 4.00000000000000000000, 4.00000000000000000000, 4.00000000000000000000, 1667.00000000000000000000, 1684.00000000000000000000, 0.00000000000000000000
8.00000000000000000000, 0.00000000000000000000, 4080.51272073127760000000, 4750.25629409750220000000, 4218.97425580699020000000, 4626.66655352992170000000, 4297.94861285017400000000, 4795.38449812217820000000, 4278.97425433979880000000, 4281.53835684120080000000, 4454.35886543570180000000, 4857.94859915638970000000, 4462.56399344018790000000, 4172.82041078175280000000, 4542.56399148393300000000, 4316.41015086026890000000, 524.00000000000000000000, 4.00000000000000000000, 4.00000000000000000000, 4.00000000000000000000, 4.00000000000000000000, 4.00000000000000000000, 4.00000000000000000000, 4.00000000000000000000, 4.00000000000000000000, 4.00000000000000000000, 4.00000000000000000000, 4.00000000000000000000, 4.00000000000000000000, 4.00000000000000000000, 4.00000000000000000000, 4.00000000000000000000, 4.00000000000000000000, 1666.00000000000000000000, 1684.00000000000000000000, 0.00000000000000000000
9.00000000000000000000, 0.00000000000000000000, 4081.53836173183840000000, 4751.79475559834280000000, 4218.97425580699020000000, 4622.56398952767810000000, 4296.41015134933330000000, 4794.87167762189800000000, 4283.07681834204230000000, 4282.05117734148100000000, 4458.46142943794440000000, 4859.99988115751150000000, 4462.05117293990770000000, 4169.23066727978950000000, 4536.92296598084890000000, 4315.89733035998870000000, 458.00000000000000000000, 4.00000000000000000000, 4.00000000000000000000, 4.00000000000000000000, 4.00000000000000000000, 4.00000000000000000000, 4.00000000000000000000, 4.00000000000000000000, 4.00000000000000000000, 4.00000000000000000000, 4.00000000000000000000, 4.00000000000000000000, 4.00000000000000000000, 4.00000000000000000000, 4.00000000000000000000, 4.00000000000000000000, 4.00000000000000000000, 1667.00000000000000000000, 1684.00000000000000000000, 0.00000000000000000000
10.00000000000000000000, 0.00000000000000000000, 4079.99990023099690000000, 4747.17937109581910000000, 4216.92297380586840000000, 4616.41014352431280000000, 4295.38451034877200000000, 4795.89731862245940000000, 4280.51271584064030000000, 4279.99989534035920000000, 4458.46142943794440000000, 4859.99988115751150000000, 4467.69219844299190000000, 4172.30759028147170000000, 4539.99988898253100000000, 4316.41015086026890000000, 499.00000000000000000000, 4.00000000000000000000, 4.00000000000000000000, 4.00000000000000000000, 4.00000000000000000000, 4.00000000000000000000, 4.00000000000000000000, 4.00000000000000000000, 4.00000000000000000000, 4.00000000000000000000, 4.00000000000000000000, 4.00000000000000000000, 4.00000000000000000000, 4.00000000000000000000, 4.00000000000000000000, 4.00000000000000000000, 4.00000000000000000000, 1667.00000000000000000000, 1685.00000000000000000000, 0.00000000000000000000
11.00000000000000000000, 0.00000000000000000000, 4069.23066972510830000000, 4736.41014058993100000000, 4210.76912780250310000000, 4610.76911802122870000000, 4292.82040784737000000000, 4795.89731862245940000000, 4278.46143383951860000000, 4279.99989534035920000000, 4449.23066043289690000000, 4856.92295815582840000000, 4460.51271143906620000000, 4169.23066727978950000000, 4538.97424798197060000000, 4308.20502285578280000000, 499.00000000000000000000, 4.00000000000000000000, 4.00000000000000000000, 4.00000000000000000000, 4.00000000000000000000, 4.00000000000000000000, 4.00000000000000000000, 4.00000000000000000000, 4.00000000000000000000, 4.00000000000000000000, 4.00000000000000000000, 4.00000000000000000000, 4.00000000000000000000, 4.00000000000000000000, 4.00000000000000000000, 4.00000000000000000000, 4.00000000000000000000, 1667.00000000000000000000, 1685.00000000000000000000, 0.00000000000000000000
12.00000000000000000000, 0.00000000000000000000, 4066.15374672342570000000, 4731.79475608740720000000, 4208.71784580138140000000, 4610.25629752094850000000, 4292.82040784737000000000, 4794.87167762189800000000, 4279.48707484007900000000, 4282.05117734148100000000, 4450.25630143345820000000, 4857.43577865610950000000, 4456.92296793710370000000, 4166.15374427810730000000, 4534.87168397972710000000, 4302.56399735269770000000, 432.00000000000000000000, 4.00000000000000000000, 4.00000000000000000000, 4.00000000000000000000, 4.00000000000000000000, 4.00000000000000000000, 4.00000000000000000000, 4.00000000000000000000, 4.00000000000000000000, 4.00000000000000000000, 4.00000000000000000000, 4.00000000000000000000, 4.00000000000000000000, 4.00000000000000000000, 4.00000000000000000000, 4.00000000000000000000, 4.00000000000000000000, 1666.00000000000000000000, 1684.00000000000000000000, 0.00000000000000000000
13.00000000000000000000, 0.00000000000000000000, 4074.35887472791230000000, 4736.41014058993100000000, 4213.84605080418620000000, 4616.41014352431280000000, 4295.38451034877200000000, 4796.92295962301980000000, 4282.56399784176210000000, 4282.56399784176210000000, 4459.48707043850570000000, 4860.51270165779170000000, 4464.10245494102950000000, 4169.23066727978950000000, 4537.94860698140930000000, 4309.23066385634320000000, 474.00000000000000000000, 4.00000000000000000000, 4.00000000000000000000, 4.00000000000000000000, 4.00000000000000000000, 4.00000000000000000000, 4.00000000000000000000, 4.00000000000000000000, 4.00000000000000000000, 4.00000000000000000000, 4.00000000000000000000, 4.00000000000000000000, 4.00000000000000000000, 4.00000000000000000000, 4.00000000000000000000, 4.00000000000000000000, 4.00000000000000000000, 1666.00000000000000000000, 1685.00000000000000000000, 0.00000000000000000000
14.00000000000000000000, 0.00000000000000000000, 4070.76913122594940000000, 4736.41014058993100000000, 4216.92297380586840000000, 4618.97424602571480000000, 4296.41015134933330000000, 4797.94860062358110000000, 4280.51271584064030000000, 4283.58963884232250000000, 4456.41014743682260000000, 4863.58962465947390000000, 4464.61527544130970000000, 4170.76912878063100000000, 4537.43578648112910000000, 4309.23066385634320000000, 499.00000000000000000000, 4.00000000000000000000, 4.00000000000000000000, 4.00000000000000000000, 4.00000000000000000000, 4.00000000000000000000, 4.00000000000000000000, 4.00000000000000000000, 4.00000000000000000000, 4.00000000000000000000, 4.00000000000000000000, 4.00000000000000000000, 4.00000000000000000000, 4.00000000000000000000, 4.00000000000000000000, 4.00000000000000000000, 4.00000000000000000000, 1668.00000000000000000000, 1684.00000000000000000000, 0.00000000000000000000
15.00000000000000000000, 0.00000000000000000000, 4062.05118272118260000000, 4733.84603808852900000000, 4214.35887130446640000000, 4616.92296402459400000000, 4297.43579234989370000000, 4793.84603662133760000000, 4271.28194683559290000000, 4278.46143383951860000000, 4444.10245543009300000000, 4857.43577865610950000000, 4457.43578843738400000000, 4167.69220577894790000000, 4527.17937647552030000000, 4298.46143335045510000000, 499.00000000000000000000, 4.00000000000000000000, 4.00000000000000000000, 4.00000000000000000000, 4.00000000000000000000, 4.00000000000000000000, 4.00000000000000000000, 4.00000000000000000000, 4.00000000000000000000, 4.00000000000000000000, 4.00000000000000000000, 4.00000000000000000000, 4.00000000000000000000, 4.00000000000000000000, 4.00000000000000000000, 4.00000000000000000000, 4.00000000000000000000, 1666.00000000000000000000, 1684.00000000000000000000, 0.00000000000000000000
16.00000000000000000000, 0.00000000000000000000, 4069.23066972510830000000, 4736.41014058993100000000, 4214.87169180474670000000, 4618.46142552543460000000, 4296.92297184961350000000, 4795.38449812217820000000, 4264.10245983166710000000, 4266.66656233306910000000, 4439.48707092756920000000, 4846.66654815022050000000, 4453.84604493542070000000, 4165.12810327754600000000, 4522.56399197299650000000, 4294.35886934821160000000, 0.00000000000000000000, 4.00000000000000000000, 4.00000000000000000000, 4.00000000000000000000, 4.00000000000000000000, 4.00000000000000000000, 4.00000000000000000000, 4.00000000000000000000, 4.00000000000000000000, 4.00000000000000000000, 4.00000000000000000000, 4.00000000000000000000, 4.00000000000000000000, 4.00000000000000000000, 4.00000000000000000000, 4.00000000000000000000, 4.00000000000000000000, 1667.00000000000000000000, 1684.00000000000000000000, 0.00000000000000000000
17.00000000000000000000, 0.00000000000000000000, 4076.92297722931470000000, 4738.97424309133290000000, 4218.97425580699020000000, 4619.99988702627620000000, 4297.94861285017400000000, 4796.41013912273960000000, 4264.10245983166710000000, 4263.58963933138600000000, 4445.64091693093450000000, 4845.64090714965910000000, 4458.97424993822550000000, 4166.15374427810730000000, 4525.64091497467960000000, 4297.94861285017400000000, 0.00000000000000000000, 4.00000000000000000000, 4.00000000000000000000, 4.00000000000000000000, 4.00000000000000000000, 4.00000000000000000000, 4.00000000000000000000, 4.00000000000000000000, 4.00000000000000000000, 4.00000000000000000000, 4.00000000000000000000, 4.00000000000000000000, 4.00000000000000000000, 4.00000000000000000000, 4.00000000000000000000, 4.00000000000000000000, 4.00000000000000000000, 1666.00000000000000000000, 1684.00000000000000000000, 0.00000000000000000000
18.00000000000000000000, 0.00000000000000000000, 4071.28195172623010000000, 4736.92296109021120000000, 4215.38451230502690000000, 4618.46142552543460000000, 4295.89733084905220000000, 4786.66654961741190000000, 4264.61528033194740000000, 4266.66656233306910000000, 4441.53835292869100000000, 4847.17936865050070000000, 4458.97424993822550000000, 4168.71784677950930000000, 4524.61527397411830000000, 4297.43579234989370000000, 0.00000000000000000000, 4.00000000000000000000, 4.00000000000000000000, 4.00000000000000000000, 4.00000000000000000000, 4.00000000000000000000, 4.00000000000000000000, 4.00000000000000000000, 4.00000000000000000000, 4.00000000000000000000, 4.00000000000000000000, 4.00000000000000000000, 4.00000000000000000000, 4.00000000000000000000, 4.00000000000000000000, 4.00000000000000000000, 4.00000000000000000000, 1667.00000000000000000000, 1684.00000000000000000000, 0.00000000000000000000
19.00000000000000000000, 0.00000000000000000000, 4065.12810572286480000000, 4732.82039708796760000000, 4203.07682029829720000000, 4615.89732302403260000000, 4291.79476684680960000000, 4783.58962661572880000000, 4266.15374183278800000000, 4264.10245983166710000000, 4427.17937892083960000000, 4841.53834314741650000000, 4447.17937843177510000000, 4162.05118027586380000000, 4518.97424847103410000000, 4292.82040784737000000000, 0.00000000000000000000, 4.00000000000000000000, 4.00000000000000000000, 4.00000000000000000000, 4.00000000000000000000, 4.00000000000000000000, 4.00000000000000000000, 4.00000000000000000000, 4.00000000000000000000, 4.00000000000000000000, 4.00000000000000000000, 4.00000000000000000000, 4.00000000000000000000, 4.00000000000000000000, 4.00000000000000000000, 4.00000000000000000000, 4.00000000000000000000, 1667.00000000000000000000, 1683.00000000000000000000, 0.00000000000000000000
20.00000000000000000000, 0.00000000000000000000, 4068.71784922482770000000, 4738.46142259105270000000, 4202.05117929773590000000, 4616.92296402459400000000, 4292.82040784737000000000, 4793.84603662133760000000, 4269.23066483447110000000, 4267.17938283334930000000, 4430.25630192252170000000, 4840.51270214685520000000, 4446.66655793149490000000, 4158.97425727418160000000, 4520.51270997187480000000, 4293.84604884793040000000, 0.00000000000000000000, 4.00000000000000000000, 4.00000000000000000000, 4.00000000000000000000, 4.00000000000000000000, 4.00000000000000000000, 4.00000000000000000000, 4.00000000000000000000, 4.00000000000000000000, 4.00000000000000000000, 4.00000000000000000000, 4.00000000000000000000, 4.00000000000000000000, 4.00000000000000000000, 4.00000000000000000000, 4.00000000000000000000, 4.00000000000000000000, 1667.00000000000000000000, 1683.00000000000000000000, 0.00000000000000000000
21.00000000000000000000, 0.00000000000000000000, 4069.74349022538850000000, 4736.41014058993100000000, 4210.25630730222290000000, 4616.41014352431280000000, 4295.89733084905220000000, 4797.94860062358110000000, 4274.35886983727510000000, 4278.46143383951860000000, 4445.12809643065430000000, 4846.15372764994030000000, 4458.46142943794440000000, 4165.64092377782710000000, 4524.10245347383810000000, 4297.43579234989370000000, 0.00000000000000000000, 4.00000000000000000000, 4.00000000000000000000, 4.00000000000000000000, 4.00000000000000000000, 4.00000000000000000000, 4.00000000000000000000, 4.00000000000000000000, 4.00000000000000000000, 4.00000000000000000000, 4.00000000000000000000, 4.00000000000000000000, 4.00000000000000000000, 4.00000000000000000000, 4.00000000000000000000, 4.00000000000000000000, 4.00000000000000000000, 1667.00000000000000000000, 1683.00000000000000000000, 0.00000000000000000000
22.00000000000000000000, 0.00000000000000000000, 4061.02554172062170000000, 4719.99988458095780000000, 4207.17938430054070000000, 4610.76911802122870000000, 4294.35886934821160000000, 4792.82039562077630000000, 4278.97425433979880000000, 4281.53835684120080000000, 4447.69219893205630000000, 4849.74347115190270000000, 4460.51271143906620000000, 4170.76912878063100000000, 4522.05117147271630000000, 4296.41015134933330000000, 0.00000000000000000000, 4.00000000000000000000, 4.00000000000000000000, 4.00000000000000000000, 4.00000000000000000000, 4.00000000000000000000, 4.00000000000000000000, 4.00000000000000000000, 4.00000000000000000000, 4.00000000000000000000, 4.00000000000000000000, 4.00000000000000000000, 4.00000000000000000000, 4.00000000000000000000, 4.00000000000000000000, 4.00000000000000000000, 4.00000000000000000000, 1668.00000000000000000000, 1683.00000000000000000000, 0.00000000000000000000
23.00000000000000000000, 0.00000000000000000000, 4059.48708021978020000000, 4726.15373058432210000000, 4202.05117929773590000000, 4613.33322052263070000000, 4293.33322834765020000000, 4794.35885712161780000000, 4279.99989534035920000000, 4284.10245934260270000000, 4449.74348093317800000000, 4855.89731715526800000000, 4457.94860893766420000000, 4169.74348778006970000000, 4520.51270997187480000000, 4295.38451034877200000000, 0.00000000000000000000, 4.00000000000000000000, 4.00000000000000000000, 4.00000000000000000000, 4.00000000000000000000, 4.00000000000000000000, 4.00000000000000000000, 4.00000000000000000000, 4.00000000000000000000, 4.00000000000000000000, 4.00000000000000000000, 4.00000000000000000000, 4.00000000000000000000, 4.00000000000000000000, 4.00000000000000000000, 4.00000000000000000000, 4.00000000000000000000, 1668.00000000000000000000, 1682.00000000000000000000, 0.00000000000000000000
24.00000000000000000000, 0.00000000000000000000, 4064.10246472230390000000, 4749.74347359722200000000, 4206.66656380025960000000, 4622.05116902739790000000, 4297.94861285017400000000, 4798.46142112386130000000, 4277.43579283895720000000, 4291.28194634652850000000, 4459.48707043850570000000, 4861.53834265835210000000, 4458.97424993822550000000, 4166.15374427810730000000, 4518.46142797075390000000, 4294.87168984849180000000, 0.00000000000000000000, 4.00000000000000000000, 4.00000000000000000000, 4.00000000000000000000, 4.00000000000000000000, 4.00000000000000000000, 4.00000000000000000000, 4.00000000000000000000, 4.00000000000000000000, 4.00000000000000000000, 4.00000000000000000000, 4.00000000000000000000, 4.00000000000000000000, 4.00000000000000000000, 4.00000000000000000000, 4.00000000000000000000, 4.00000000000000000000, 1667.00000000000000000000, 1684.00000000000000000000, 0.00000000000000000000
25.00000000000000000000, 0.00000000000000000000, 4057.43579821865890000000, 4755.38449910030610000000, 4205.12810229941900000000, 4621.02552802683660000000, 4298.97425385073530000000, 4798.46142112386130000000, 4278.46143383951860000000, 4289.23066434540670000000, 4463.58963444074930000000, 4864.10244515975410000000, 4453.33322443514040000000, 4161.53835977558360000000, 4508.71783846542530000000, 4287.69220284456610000000, 0.00000000000000000000, 4.00000000000000000000, 4.00000000000000000000, 4.00000000000000000000, 4.00000000000000000000, 4.00000000000000000000, 4.00000000000000000000, 4.00000000000000000000, 4.00000000000000000000, 4.00000000000000000000, 4.00000000000000000000, 4.00000000000000000000, 4.00000000000000000000, 4.00000000000000000000, 4.00000000000000000000, 4.00000000000000000000, 4.00000000000000000000, 1668.00000000000000000000, 1683.00000000000000000000, 0.00000000000000000000
26.00000000000000000000, 0.00000000000000000000, 4046.15374721248960000000, 4752.30757609862390000000, 4199.48707679633390000000, 4616.41014352431280000000, 4297.43579234989370000000, 4796.41013912273960000000, 4276.41015183839680000000, 4280.51271584064030000000, 4458.46142943794440000000, 4862.56398365891350000000, 4444.61527593037320000000, 4152.30759077053610000000, 4493.33322345701340000000, 4274.35886983727510000000, 0.00000000000000000000, 4.00000000000000000000, 4.00000000000000000000, 4.00000000000000000000, 4.00000000000000000000, 4.00000000000000000000, 4.00000000000000000000, 4.00000000000000000000, 4.00000000000000000000, 4.00000000000000000000, 4.00000000000000000000, 4.00000000000000000000, 4.00000000000000000000, 4.00000000000000000000, 4.00000000000000000000, 4.00000000000000000000, 4.00000000000000000000, 1666.00000000000000000000, 1685.00000000000000000000, 0.00000000000000000000
27.00000000000000000000, 0.00000000000000000000, 4042.56400371052680000000, 4755.89731960058630000000, 4198.46143579577350000000, 4619.99988702627620000000, 4300.51271535157590000000, 4795.89731862245940000000, 4272.30758783615330000000, 4277.43579283895720000000, 4449.74348093317800000000, 4851.28193265274420000000, 4436.92296842616720000000, 4141.53836026464710000000, 4482.05117245084420000000, 4259.48707532914250000000, 0.00000000000000000000, 4.00000000000000000000, 4.00000000000000000000, 4.00000000000000000000, 4.00000000000000000000, 4.00000000000000000000, 4.00000000000000000000, 4.00000000000000000000, 4.00000000000000000000, 4.00000000000000000000, 4.00000000000000000000, 4.00000000000000000000, 4.00000000000000000000, 4.00000000000000000000, 4.00000000000000000000, 4.00000000000000000000, 4.00000000000000000000, 1667.00000000000000000000, 1685.00000000000000000000, 0.00000000000000000000
28.00000000000000000000, 0.00000000000000000000, 4039.48708070884410000000, 4752.30757609862390000000, 4192.82041029268840000000, 4620.51270752655640000000, 4304.10245885353920000000, 4798.46142112386130000000, 4277.43579283895720000000, 4277.94861333923840000000, 4442.05117342897120000000, 4843.07680464825720000000, 4429.23066092196130000000, 4135.89733476156290000000, 4470.25630094439480000000, 4250.25630632409500000000, 0.00000000000000000000, 4.00000000000000000000, 4.00000000000000000000, 4.00000000000000000000, 4.00000000000000000000, 4.00000000000000000000, 4.00000000000000000000, 4.00000000000000000000, 4.00000000000000000000, 4.00000000000000000000, 4.00000000000000000000, 4.00000000000000000000, 4.00000000000000000000, 4.00000000000000000000, 4.00000000000000000000, 4.00000000000000000000, 4.00000000000000000000, 1666.00000000000000000000, 1684.00000000000000000000, 0.00000000000000000000
29.00000000000000000000, 0.00000000000000000000, 4029.23067070323580000000, 4743.07680709357650000000, 4182.56400028708050000000, 4613.84604102291090000000, 4302.56399735269770000000, 4799.48706212442180000000, 4283.58963884232250000000, 4276.92297233867700000000, 4443.58963492981270000000, 4843.58962514853740000000, 4426.15373792027820000000, 4131.79477075931940000000, 4461.02553193934640000000, 4245.64092182157130000000, 0.00000000000000000000, 4.00000000000000000000, 4.00000000000000000000, 4.00000000000000000000, 4.00000000000000000000, 4.00000000000000000000, 4.00000000000000000000, 4.00000000000000000000, 4.00000000000000000000, 4.00000000000000000000, 4.00000000000000000000, 4.00000000000000000000, 4.00000000000000000000, 4.00000000000000000000, 4.00000000000000000000, 4.00000000000000000000, 4.00000000000000000000, 1667.00000000000000000000, 1685.00000000000000000000, 0.00000000000000000000
30.00000000000000000000, 0.00000000000000000000, 4021.02554269874920000000, 4737.43578159049140000000, 4181.53835928651920000000, 4609.23065652038710000000, 4302.05117685241750000000, 4799.48706212442180000000, 4282.05117734148100000000, 4278.97425433979880000000, 4446.66655793149490000000, 4836.92295864489280000000, 4421.53835341775450000000, 4123.58964275483230000000, 4456.41014743682260000000, 4237.43579381708510000000, 0.00000000000000000000, 4.00000000000000000000, 4.00000000000000000000, 4.00000000000000000000, 4.00000000000000000000, 4.00000000000000000000, 4.00000000000000000000, 4.00000000000000000000, 4.00000000000000000000, 4.00000000000000000000, 4.00000000000000000000, 4.00000000000000000000, 4.00000000000000000000, 4.00000000000000000000, 4.00000000000000000000, 4.00000000000000000000, 4.00000000000000000000, 1666.00000000000000000000, 1684.00000000000000000000, 0.00000000000000000000
31.00000000000000000000, 0.00000000000000000000, 4017.94861969706650000000, 4731.79475608740720000000, 4183.07682078736070000000, 4608.71783602010690000000, 4304.10245885353920000000, 4799.48706212442180000000, 4279.48707484007900000000, 4277.94861333923840000000, 4435.89732742560680000000, 4824.61526663816220000000, 4412.30758441270700000000, 4119.48707875258880000000, 4446.15373743121470000000, 4229.23066581259810000000, 0.00000000000000000000, 4.00000000000000000000, 4.00000000000000000000, 4.00000000000000000000, 4.00000000000000000000, 4.00000000000000000000, 4.00000000000000000000, 4.00000000000000000000, 4.00000000000000000000, 4.00000000000000000000, 4.00000000000000000000, 4.00000000000000000000, 4.00000000000000000000, 4.00000000000000000000, 4.00000000000000000000, 4.00000000000000000000, 4.00000000000000000000, 1665.00000000000000000000, 1685.00000000000000000000, 0.00000000000000000000
32.00000000000000000000, 0.00000000000000000000, 4019.48708119790760000000, 4736.41014058993100000000, 4181.53835928651920000000, 4611.79475902178910000000, 4303.07681785297880000000, 4798.46142112386130000000, 4278.97425433979880000000, 4269.74348533475130000000, 4426.66655842055840000000, 4825.12808713844240000000, 4407.69219991018330000000, 4119.99989925286990000000, 4442.05117342897120000000, 4227.69220431175750000000, 0.00000000000000000000, 4.00000000000000000000, 4.00000000000000000000, 4.00000000000000000000, 4.00000000000000000000, 4.00000000000000000000, 4.00000000000000000000, 4.00000000000000000000, 4.00000000000000000000, 4.00000000000000000000, 4.00000000000000000000, 4.00000000000000000000, 4.00000000000000000000, 4.00000000000000000000, 4.00000000000000000000, 4.00000000000000000000, 4.00000000000000000000, 1665.00000000000000000000, 1684.00000000000000000000, 0.00000000000000000000
33.00000000000000000000, 0.00000000000000000000, 4027.17938870211400000000, 4747.69219159610020000000, 4183.07682078736070000000, 4615.89732302403260000000, 4303.07681785297880000000, 4797.43578012330000000000, 4278.46143383951860000000, 4265.64092133250780000000, 4430.25630192252170000000, 4830.76911264152750000000, 4413.84604591354860000000, 4119.48707875258880000000, 4454.35886543570180000000, 4231.28194781371990000000, 0.00000000000000000000, 4.00000000000000000000, 4.00000000000000000000, 4.00000000000000000000, 4.00000000000000000000, 4.00000000000000000000, 4.00000000000000000000, 4.00000000000000000000, 4.00000000000000000000, 4.00000000000000000000, 4.00000000000000000000, 4.00000000000000000000, 4.00000000000000000000, 4.00000000000000000000, 4.00000000000000000000, 4.00000000000000000000, 4.00000000000000000000, 1665.00000000000000000000, 1685.00000000000000000000, 0.00000000000000000000
34.00000000000000000000, 0.00000000000000000000, 4040.51272170940500000000, 4753.84603759946460000000, 4188.20502579016470000000, 4621.02552802683660000000, 4305.64092035438080000000, 4797.43578012330000000000, 4276.41015183839680000000, 4264.10245983166710000000, 4433.33322492420390000000, 4830.25629214124730000000, 4423.58963541887620000000, 4127.17938625679560000000, 4463.58963444074930000000, 4238.46143481764560000000, 0.00000000000000000000, 4.00000000000000000000, 4.00000000000000000000, 4.00000000000000000000, 4.00000000000000000000, 4.00000000000000000000, 4.00000000000000000000, 4.00000000000000000000, 4.00000000000000000000, 4.00000000000000000000, 4.00000000000000000000, 4.00000000000000000000, 4.00000000000000000000, 4.00000000000000000000, 4.00000000000000000000, 4.00000000000000000000, 4.00000000000000000000, 1666.00000000000000000000, 1684.00000000000000000000, 0.00000000000000000000
35.00000000000000000000, 0.00000000000000000000, 4047.17938821305050000000, 4756.41014010086660000000, 4189.23066679072600000000, 4622.05116902739790000000, 4304.10245885353920000000, 4796.41013912273960000000, 4272.30758783615330000000, 4263.58963933138600000000, 4431.79476342336330000000, 4834.35885614348990000000, 4428.20501992140000000000, 4136.41015526184310000000, 4463.58963444074930000000, 4247.17938332241280000000, 0.00000000000000000000, 4.00000000000000000000, 4.00000000000000000000, 4.00000000000000000000, 4.00000000000000000000, 4.00000000000000000000, 4.00000000000000000000, 4.00000000000000000000, 4.00000000000000000000, 4.00000000000000000000, 4.00000000000000000000, 4.00000000000000000000, 4.00000000000000000000, 4.00000000000000000000, 4.00000000000000000000, 4.00000000000000000000, 4.00000000000000000000, 1667.00000000000000000000, 1684.00000000000000000000, 0.00000000000000000000
36.00000000000000000000, 0.00000000000000000000, 4044.10246521136790000000, 4753.84603759946460000000, 4186.66656428932400000000, 4617.43578452487420000000, 4302.56399735269770000000, 4794.87167762189800000000, 4273.33322883671460000000, 4270.76912633531170000000, 4437.43578892644750000000, 4842.56398414797700000000, 4428.20501992140000000000, 4135.89733476156290000000, 4470.76912144467500000000, 4249.74348582381480000000, 0.00000000000000000000, 4.00000000000000000000, 4.00000000000000000000, 4.00000000000000000000, 4.00000000000000000000, 4.00000000000000000000, 4.00000000000000000000, 4.00000000000000000000, 4.00000000000000000000, 4.00000000000000000000, 4.00000000000000000000, 4.00000000000000000000, 4.00000000000000000000, 4.00000000000000000000, 4.00000000000000000000, 4.00000000000000000000, 4.00000000000000000000, 1666.00000000000000000000, 1684.00000000000000000000, 0.00000000000000000000
37.00000000000000000000, 0.00000000000000000000, 4041.53836270996590000000, 4750.25629409750220000000, 4185.64092328876270000000, 4616.92296402459400000000, 4304.61527935381950000000, 4797.43578012330000000000, 4278.97425433979880000000, 4281.02553634092060000000, 4451.28194243401870000000, 4846.66654815022050000000, 4431.79476342336330000000, 4135.38451426128180000000, 4476.92296744803930000000, 4248.20502432297420000000, 0.00000000000000000000, 4.00000000000000000000, 4.00000000000000000000, 4.00000000000000000000, 4.00000000000000000000, 4.00000000000000000000, 4.00000000000000000000, 4.00000000000000000000, 4.00000000000000000000, 4.00000000000000000000, 4.00000000000000000000, 4.00000000000000000000, 4.00000000000000000000, 4.00000000000000000000, 4.00000000000000000000, 4.00000000000000000000, 4.00000000000000000000, 1667.00000000000000000000, 1684.00000000000000000000, 0.00000000000000000000
38.00000000000000000000, 0.00000000000000000000, 4044.10246521136790000000, 4755.89731960058630000000, 4185.64092328876270000000, 4623.58963052823860000000, 4308.20502285578280000000, 4798.97424162414150000000, 4279.99989534035920000000, 4281.53835684120080000000, 4455.38450643626220000000, 4846.66654815022050000000, 4433.84604542448510000000, 4136.41015526184310000000, 4471.28194194495520000000, 4247.69220382269300000000, 0.00000000000000000000, 4.00000000000000000000, 4.00000000000000000000, 4.00000000000000000000, 4.00000000000000000000, 4.00000000000000000000, 4.00000000000000000000, 4.00000000000000000000, 4.00000000000000000000, 4.00000000000000000000, 4.00000000000000000000, 4.00000000000000000000, 4.00000000000000000000, 4.00000000000000000000, 4.00000000000000000000, 4.00000000000000000000, 4.00000000000000000000, 1667.00000000000000000000, 1685.00000000000000000000, 0.00000000000000000000
39.00000000000000000000, 0.00000000000000000000, 4046.15374721248960000000, 4765.64090910591400000000, 4187.17938478960420000000, 4627.17937403020190000000, 4309.23066385634320000000, 4796.41013912273960000000, 4278.97425433979880000000, 4277.94861333923840000000, 4449.23066043289690000000, 4844.61526614909870000000, 4429.74348142224150000000, 4135.89733476156290000000, 4466.15373694215120000000, 4248.20502432297420000000, 0.00000000000000000000, 4.00000000000000000000, 4.00000000000000000000, 4.00000000000000000000, 4.00000000000000000000, 4.00000000000000000000, 4.00000000000000000000, 4.00000000000000000000, 4.00000000000000000000, 4.00000000000000000000, 4.00000000000000000000, 4.00000000000000000000, 4.00000000000000000000, 4.00000000000000000000, 4.00000000000000000000, 4.00000000000000000000, 4.00000000000000000000, 1668.00000000000000000000, 1684.00000000000000000000, 0.00000000000000000000
40.00000000000000000000, 0.00000000000000000000, 4044.10246521136790000000, 4764.61526810535360000000, 4193.33323079296950000000, 4626.66655352992170000000, 4308.20502285578280000000, 4796.41013912273960000000, 4277.43579283895720000000, 4277.43579283895720000000, 4443.07681442953250000000, 4841.53834314741650000000, 4426.66655842055840000000, 4134.87169376100160000000, 4461.02553193934640000000, 4246.66656282213260000000, 0.00000000000000000000, 4.00000000000000000000, 4.00000000000000000000, 4.00000000000000000000, 4.00000000000000000000, 4.00000000000000000000, 4.00000000000000000000, 4.00000000000000000000, 4.00000000000000000000, 4.00000000000000000000, 4.00000000000000000000, 4.00000000000000000000, 4.00000000000000000000, 4.00000000000000000000, 4.00000000000000000000, 4.00000000000000000000, 4.00000000000000000000, 1667.00000000000000000000, 1684.00000000000000000000, 0.00000000000000000000
41.00000000000000000000, 0.00000000000000000000, 4045.12810621192880000000, 4762.56398610423180000000, 4198.97425629605370000000, 4630.25629703188410000000, 4307.69220235550260000000, 4799.48706212442180000000, 4276.92297233867700000000, 4277.94861333923840000000, 4444.61527593037320000000, 4842.05116364769670000000, 4427.69219942111980000000, 4137.43579626240350000000, 4461.53835243962750000000, 4245.64092182157130000000, 0.00000000000000000000, 4.00000000000000000000, 4.00000000000000000000, 4.00000000000000000000, 4.00000000000000000000, 4.00000000000000000000, 4.00000000000000000000, 4.00000000000000000000, 4.00000000000000000000, 4.00000000000000000000, 4.00000000000000000000, 4.00000000000000000000, 4.00000000000000000000, 4.00000000000000000000, 4.00000000000000000000, 4.00000000000000000000, 4.00000000000000000000, 1668.00000000000000000000, 1684.00000000000000000000, 0.00000000000000000000
42.00000000000000000000, 0.00000000000000000000, 4048.20502921361140000000, 4763.58962710479320000000, 4201.02553829717540000000, 4632.30757903300580000000, 4309.23066385634320000000, 4799.99988262470200000000, 4281.53835684120080000000, 4279.48707484007900000000, 4450.76912193373850000000, 4846.66654815022050000000, 4430.25630192252170000000, 4139.48707826352530000000, 4472.30758294551560000000, 4247.69220382269300000000, 0.00000000000000000000, 4.00000000000000000000, 4.00000000000000000000, 4.00000000000000000000, 4.00000000000000000000, 4.00000000000000000000, 4.00000000000000000000, 4.00000000000000000000, 4.00000000000000000000, 4.00000000000000000000, 4.00000000000000000000, 4.00000000000000000000, 4.00000000000000000000, 4.00000000000000000000, 4.00000000000000000000, 4.00000000000000000000, 4.00000000000000000000, 1668.00000000000000000000, 1683.00000000000000000000, 0.00000000000000000000
43.00000000000000000000, 0.00000000000000000000, 4045.64092671220900000000, 4757.94860160170810000000, 4198.97425629605370000000, 4628.20501503076230000000, 4308.71784335606300000000, 4799.48706212442180000000, 4284.10245934260270000000, 4279.48707484007900000000, 4447.69219893205630000000, 4844.61526614909870000000, 4430.76912242280200000000, 4138.97425776324510000000, 4476.41014694775910000000, 4248.71784482325440000000, 0.00000000000000000000, 4.00000000000000000000, 4.00000000000000000000, 4.00000000000000000000, 4.00000000000000000000, 4.00000000000000000000, 4.00000000000000000000, 4.00000000000000000000, 4.00000000000000000000, 4.00000000000000000000, 4.00000000000000000000, 4.00000000000000000000, 4.00000000000000000000, 4.00000000000000000000, 4.00000000000000000000, 4.00000000000000000000, 4.00000000000000000000, 1667.00000000000000000000, 1684.00000000000000000000, 0.00000000000000000000
44.00000000000000000000, 0.00000000000000000000, 4045.64092671220900000000, 4750.25629409750220000000, 4197.94861529549330000000, 4625.12809202908010000000, 4306.66656135494120000000, 4799.48706212442180000000, 4280.51271584064030000000, 4277.94861333923840000000, 4445.12809643065430000000, 4841.53834314741650000000, 4429.74348142224150000000, 4136.41015526184310000000, 4471.79476244523540000000, 4246.66656282213260000000, 0.00000000000000000000, 4.00000000000000000000, 4.00000000000000000000, 4.00000000000000000000, 4.00000000000000000000, 4.00000000000000000000, 4.00000000000000000000, 4.00000000000000000000, 4.00000000000000000000, 4.00000000000000000000, 4.00000000000000000000, 4.00000000000000000000, 4.00000000000000000000, 4.00000000000000000000, 4.00000000000000000000, 4.00000000000000000000, 4.00000000000000000000, 1668.00000000000000000000, 1684.00000000000000000000, 0.00000000000000000000
45.00000000000000000000, 0.00000000000000000000, 4051.79477271557430000000, 4751.79475559834280000000, 4201.02553829717540000000, 4628.20501503076230000000, 4304.61527935381950000000, 4797.94860062358110000000, 4277.94861333923840000000, 4273.84604933699480000000, 4446.15373743121470000000, 4845.64090714965910000000, 4430.25630192252170000000, 4137.94861676268370000000, 4472.30758294551560000000, 4248.20502432297420000000, 0.00000000000000000000, 4.00000000000000000000, 4.00000000000000000000, 4.00000000000000000000, 4.00000000000000000000, 4.00000000000000000000, 4.00000000000000000000, 4.00000000000000000000, 4.00000000000000000000, 4.00000000000000000000, 4.00000000000000000000, 4.00000000000000000000, 4.00000000000000000000, 4.00000000000000000000, 4.00000000000000000000, 4.00000000000000000000, 4.00000000000000000000, 1666.00000000000000000000, 1685.00000000000000000000, 0.00000000000000000000
46.00000000000000000000, 0.00000000000000000000, 4054.35887521697620000000, 4756.92296060114770000000, 4202.05117929773590000000, 4630.76911753216520000000, 4302.56399735269770000000, 4795.89731862245940000000, 4274.87169033755530000000, 4266.15374183278800000000, 4436.41014792588700000000, 4842.56398414797700000000, 4431.79476342336330000000, 4140.51271926408660000000, 4476.92296744803930000000, 4251.79476782493660000000, 0.00000000000000000000, 4.00000000000000000000, 4.00000000000000000000, 4.00000000000000000000, 4.00000000000000000000, 4.00000000000000000000, 4.00000000000000000000, 4.00000000000000000000, 4.00000000000000000000, 4.00000000000000000000, 4.00000000000000000000, 4.00000000000000000000, 4.00000000000000000000, 4.00000000000000000000, 4.00000000000000000000, 4.00000000000000000000, 4.00000000000000000000, 1669.00000000000000000000, 1685.00000000000000000000, 0.00000000000000000000
47.00000000000000000000, 0.00000000000000000000, 4050.76913171501340000000, 4751.79475559834280000000, 4199.99989729661500000000, 4626.66655352992170000000, 4301.02553585185710000000, 4795.38449812217820000000, 4267.69220333362950000000, 4262.56399833082560000000, 4425.12809691971780000000, 4831.28193314180770000000, 4430.25630192252170000000, 4138.97425776324510000000, 4472.30758294551560000000, 4249.23066532353460000000, 0.00000000000000000000, 4.00000000000000000000, 4.00000000000000000000, 4.00000000000000000000, 4.00000000000000000000, 4.00000000000000000000, 4.00000000000000000000, 4.00000000000000000000, 4.00000000000000000000, 4.00000000000000000000, 4.00000000000000000000, 4.00000000000000000000, 4.00000000000000000000, 4.00000000000000000000, 4.00000000000000000000, 4.00000000000000000000, 4.00000000000000000000, 1667.00000000000000000000, 1684.00000000000000000000, 0.00000000000000000000
48.00000000000000000000, 0.00000000000000000000, 4049.23067021417180000000, 4749.74347359722200000000, 4197.43579479521210000000, 4622.56398952767810000000, 4301.02553585185710000000, 4796.41013912273960000000, 4263.58963933138600000000, 4264.61528033194740000000, 4430.76912242280200000000, 4834.35885614348990000000, 4429.74348142224150000000, 4137.94861676268370000000, 4468.71783944355320000000, 4247.17938332241280000000, 0.00000000000000000000, 4.00000000000000000000, 4.00000000000000000000, 4.00000000000000000000, 4.00000000000000000000, 4.00000000000000000000, 4.00000000000000000000, 4.00000000000000000000, 4.00000000000000000000, 4.00000000000000000000, 4.00000000000000000000, 4.00000000000000000000, 4.00000000000000000000, 4.00000000000000000000, 4.00000000000000000000, 4.00000000000000000000, 4.00000000000000000000, 1668.00000000000000000000, 1686.00000000000000000000, 0.00000000000000000000
